* Measurement data measured by REW V5.20.4
* Source: Mic in at front panel (Pink) (Realtek(R) Audio), MICROPHONE (Master Volume), L, volume: 0.250
* Format: 256k Log Swept Sine, 1 sweep at -12.0 dBFS with no timing reference
* Dated: Jul 15, 2022 11:24:46 AM
* REW Settings:
*  C-weighting compensation: Off
*  Target level: 75.0 dB
* Note: Timeless MP on Front L
* Measurement: KZ EDX Ultra Jul 15
* Smoothing: 1/12 octave
* Frequency Step: 1/48 octave
* Start Frequency: 20.000 Hz
*
* Freq(Hz)	SPL(dB)	Phase(degrees)
20.000000	102.403	1.6379
20.299999	102.384	1.1010
20.600000	102.361	0.5688
20.900000	102.334	0.0415
21.200001	102.306	-0.4783
21.400000	102.289	-0.8192
21.799999	102.257	-1.4885
22.000000	102.244	-1.8185
22.400000	102.221	-2.4745
22.700001	102.205	-2.9664
23.000000	102.189	-3.4575
23.299999	102.171	-3.9415
23.600000	102.153	-4.4124
24.000000	102.126	-5.0118
24.299999	102.105	-5.4401
24.700001	102.076	-5.9899
25.000000	102.053	-6.3934
25.400000	102.021	-6.9256
25.799999	101.987	-7.4486
26.200001	101.953	-7.9550
26.500000	101.927	-8.3219
26.900000	101.892	-8.7970
27.200001	101.864	-9.1490
27.600000	101.827	-9.6204
28.000000	101.789	-10.0972
28.500000	101.740	-10.6917
29.000000	101.691	-11.2660
29.500000	101.642	-11.8105
30.000000	101.596	-12.3326
30.400000	101.561	-12.7448
30.700001	101.536	-13.0543
31.100000	101.504	-13.4689
31.500000	101.471	-13.8822
32.000000	101.427	-14.3909
32.500000	101.380	-14.8873
33.000000	101.333	-15.3757
33.500000	101.287	-15.8602
34.000000	101.243	-16.3386
34.500000	101.200	-16.8044
35.000000	101.158	-17.2545
35.500000	101.119	-17.6921
36.000000	101.083	-18.1216
36.500000	101.047	-18.5425
37.000000	101.010	-18.9510
37.500000	100.969	-19.3469
38.200001	100.902	-19.8881
38.700001	100.849	-20.2697
39.500000	100.757	-20.8687
40.000000	100.700	-21.2341
40.599998	100.638	-21.6664
41.200001	100.580	-22.0934
41.799999	100.525	-22.5129
42.500000	100.464	-22.9879
43.099998	100.415	-23.3773
43.700001	100.366	-23.7468
44.400002	100.307	-24.1548
45.000000	100.255	-24.4891
45.500000	100.210	-24.7577
46.200001	100.144	-25.1169
46.799999	100.086	-25.4146
47.500000	100.014	-25.7648
48.200001	99.937	-26.1246
48.700001	99.878	-26.3827
49.400002	99.794	-26.7397
50.000000	99.727	-27.0482
50.799999	99.647	-27.4722
51.500000	99.582	-27.8405
52.200001	99.521	-28.1853
53.000000	99.457	-28.5587
53.799999	99.395	-28.9254
54.500000	99.342	-29.2168
55.200001	99.291	-29.4557
56.000000	99.240	-29.6944
57.000000	99.175	-30.0259
58.000000	99.095	-30.3794
59.000000	99.005	-30.6958
60.000000	98.918	-31.0244
60.799999	98.849	-31.3485
61.500000	98.785	-31.6584
62.200001	98.717	-31.9401
63.000000	98.644	-32.1913
64.000000	98.571	-32.4580
65.000000	98.504	-32.7621
66.000000	98.427	-33.0631
67.000000	98.341	-33.2850
68.000000	98.256	-33.4363
69.000000	98.175	-33.5743
70.000000	98.096	-33.7548
71.000000	98.015	-33.9896
72.000000	97.932	-34.2452
73.000000	97.851	-34.4862
74.000000	97.775	-34.6708
75.000000	97.709	-34.7759
76.199997	97.644	-34.8696
77.500000	97.577	-35.0635
78.800003	97.489	-35.3489
80.000000	97.386	-35.5892
81.199997	97.281	-35.7905
82.500000	97.177	-36.0588
83.800003	97.072	-36.4349
85.000000	96.963	-36.7788
86.199997	96.843	-36.9743
87.500000	96.716	-36.9836
88.500000	96.624	-36.8908
90.000000	96.487	-36.6261
91.199997	96.384	-36.3219
92.500000	96.293	-35.9803
93.800003	96.226	-35.7511
95.000000	96.177	-35.6636
96.199997	96.140	-35.6393
97.500000	96.111	-35.6696
98.800003	96.083	-35.7721
100.000000	96.048	-35.9071
101.500000	95.988	-36.1010
103.000000	95.917	-36.3237
104.400002	95.845	-36.5319
106.000000	95.756	-36.6790
107.500000	95.671	-36.6741
109.000000	95.586	-36.5911
110.599998	95.492	-36.5557
112.000000	95.417	-36.6429
113.800003	95.361	-36.9031
115.000000	95.367	-37.1384
117.199997	95.445	-37.5958
118.000000	95.472	-37.7482
120.599998	95.407	-38.0265
122.000000	95.260	-37.8323
124.099998	95.007	-37.3070
125.000000	94.911	-37.1399
126.500000	94.781	-36.9983
128.000000	94.684	-36.9709
131.500000	94.503	-36.8549
132.000000	94.479	-36.8152
134.000000	94.391	-36.6809
136.000000	94.316	-36.6598
138.000000	94.243	-36.7012
140.000000	94.164	-36.7115
143.000000	94.035	-36.6754
145.000000	93.946	-36.6741
147.500000	93.832	-36.6700
150.000000	93.717	-36.5850
152.500000	93.606	-36.4129
155.000000	93.510	-36.1829
157.500000	93.431	-35.9375
160.000000	93.358	-35.7213
162.500000	93.278	-35.5581
165.000000	93.185	-35.4369
167.500000	93.078	-35.3016
170.000000	92.958	-35.0958
172.500000	92.833	-34.8110
175.000000	92.714	-34.4865
177.500000	92.612	-34.1759
180.000000	92.531	-33.9028
182.500000	92.470	-33.6637
185.000000	92.427	-33.4641
187.500000	92.392	-33.3117
190.000000	92.355	-33.1900
192.500000	92.312	-33.0647
195.000000	92.257	-32.8997
197.500000	92.191	-32.6833
200.000000	92.120	-32.4325
203.000000	92.035	-32.1219
206.000000	91.956	-31.8349
209.000000	91.878	-31.5848
212.000000	91.798	-31.3616
214.000000	91.742	-31.2123
218.000000	91.631	-30.8683
220.000000	91.577	-30.6716
224.000000	91.478	-30.2640
227.000000	91.408	-29.9640
230.000000	91.341	-29.6708
233.000000	91.279	-29.3859
236.000000	91.220	-29.1129
240.000000	91.140	-28.7630
243.000000	91.076	-28.5000
247.000000	90.986	-28.1221
250.000000	90.918	-27.8010
254.000000	90.833	-27.3174
258.000000	90.762	-26.8108
262.000000	90.700	-26.3503
265.000000	90.652	-26.0411
269.000000	90.585	-25.6355
272.000000	90.533	-25.3130
276.000000	90.468	-24.8580
280.000000	90.409	-24.3936
285.000000	90.349	-23.8340
290.000000	90.302	-23.3535
295.000000	90.250	-22.9619
300.000000	90.187	-22.5841
304.000000	90.136	-22.2542
307.000000	90.098	-21.9910
311.000000	90.047	-21.6306
315.000000	89.992	-21.2662
320.000000	89.923	-20.7933
325.000000	89.858	-20.2812
330.000000	89.799	-19.7423
335.000000	89.744	-19.2078
340.000000	89.690	-18.6962
345.000000	89.638	-18.1997
350.000000	89.590	-17.7008
355.000000	89.548	-17.1948
360.000000	89.509	-16.6890
365.000000	89.468	-16.1903
370.000000	89.426	-15.7003
375.000000	89.386	-15.2179
382.000000	89.336	-14.5521
387.000000	89.303	-14.0824
395.000000	89.253	-13.3381
400.000000	89.221	-12.8771
406.000000	89.182	-12.3326
412.000000	89.143	-11.7971
418.000000	89.103	-11.2545
425.000000	89.062	-10.5909
431.000000	89.034	-10.0035
437.000000	89.011	-9.4245
444.000000	88.990	-8.7780
450.000000	88.977	-8.2643
455.000000	88.966	-7.8810
462.000000	88.944	-7.3985
468.000000	88.918	-6.9807
475.000000	88.886	-6.4482
482.000000	88.856	-5.8882
487.000000	88.834	-5.4864
494.000000	88.801	-4.9069
500.000000	88.775	-4.3813
508.000000	88.749	-3.6719
515.000000	88.730	-3.0738
522.000000	88.710	-2.4876
530.000000	88.686	-1.8019
538.000000	88.666	-1.0973
545.000000	88.653	-0.4814
552.000000	88.643	0.1293
560.000000	88.636	0.8118
570.000000	88.628	1.6349
580.000000	88.619	2.4515
590.000000	88.607	3.2793
600.000000	88.597	4.1276
608.000000	88.595	4.8089
615.000000	88.597	5.3975
622.000000	88.599	5.9896
630.000000	88.602	6.6903
640.000000	88.612	7.5939
650.000000	88.631	8.4984
660.000000	88.663	9.3773
670.000000	88.707	10.1736
680.000000	88.749	10.8825
690.000000	88.782	11.5632
700.000000	88.808	12.2620
710.000000	88.834	12.9879
720.000000	88.864	13.7213
730.000000	88.898	14.4518
740.000000	88.934	15.1818
750.000000	88.971	15.9139
762.000000	89.019	16.7967
775.000000	89.077	17.7533
788.000000	89.143	18.7046
800.000000	89.212	19.5896
812.000000	89.293	20.4774
825.000000	89.395	21.3786
838.000000	89.503	22.1541
850.000000	89.598	22.7847
862.000000	89.685	23.3899
875.000000	89.776	24.0481
885.000000	89.848	24.5569
900.000000	89.962	25.3032
912.000000	90.057	25.8842
925.000000	90.166	26.4922
938.000000	90.281	27.0585
950.000000	90.391	27.5317
962.000000	90.502	27.9622
975.000000	90.624	28.3926
988.000000	90.748	28.7918
1000.000000	90.864	29.1375
1015.000000	91.013	29.5510
1030.000000	91.174	29.9189
1044.000000	91.335	30.1543
1060.000000	91.523	30.2316
1075.000000	91.692	30.1409
1090.000000	91.853	29.9383
1106.000000	92.018	29.6120
1120.000000	92.154	29.2306
1138.000000	92.309	28.6071
1150.000000	92.396	28.1092
1172.000000	92.515	27.0494
1180.000000	92.545	26.6306
1206.000000	92.586	25.1910
1220.000000	92.565	24.3964
1241.000000	92.458	23.3687
1250.000000	92.385	23.0652
1265.000000	92.235	22.8318
1280.000000	92.065	22.9948
1315.000000	91.716	24.8585
1320.000000	91.683	25.2506
1340.000000	91.602	26.9647
1360.000000	91.603	28.7474
1380.000000	91.671	30.4630
1400.000000	91.793	32.0554
1430.000000	92.062	34.0851
1450.000000	92.274	35.1318
1475.000000	92.554	36.1619
1500.000000	92.848	36.9919
1525.000000	93.159	37.7073
1550.000000	93.483	38.3660
1575.000000	93.812	38.9718
1600.000000	94.116	39.4372
1625.000000	94.355	39.6996
1650.000000	94.518	39.7799
1675.000000	94.638	39.6958
1700.000000	94.758	39.4308
1725.000000	94.908	38.9656
1750.000000	95.094	38.3351
1775.000000	95.307	37.6244
1800.000000	95.538	36.8911
1825.000000	95.775	36.1304
1850.000000	96.009	35.3482
1875.000000	96.242	34.5720
1900.000000	96.484	33.8024
1925.000000	96.743	32.9919
1950.000000	97.022	32.0379
1975.000000	97.312	30.7952
2000.000000	97.590	29.1549
2030.000000	97.869	26.6824
2060.000000	98.062	23.8469
2090.000000	98.162	20.8851
2120.000000	98.177	17.9929
2140.000000	98.145	16.1791
2180.000000	98.016	12.9286
2200.000000	97.931	11.4729
2240.000000	97.725	8.8058
2270.000000	97.529	7.0332
2300.000000	97.292	5.5672
2330.000000	97.023	4.5455
2360.000000	96.747	4.0349
2400.000000	96.417	4.0730
2430.000000	96.229	4.4982
2470.000000	96.083	5.2802
2500.000000	96.050	5.7800
2540.000000	96.069	6.0770
2580.000000	96.112	5.8728
2620.000000	96.134	5.2429
2650.000000	96.120	4.6176
2690.000000	96.058	3.7883
2720.000000	95.991	3.2697
2760.000000	95.893	2.7293
2800.000000	95.797	2.2802
2850.000000	95.682	1.7411
2900.000000	95.555	1.2057
2950.000000	95.404	0.7811
3000.000000	95.239	0.5566
3040.000000	95.108	0.5339
3070.000000	95.015	0.6259
3110.000000	94.910	0.9062
3150.000000	94.844	1.3079
3200.000000	94.827	1.7784
3250.000000	94.863	1.9812
3300.000000	94.913	1.8158
3350.000000	94.945	1.3756
3400.000000	94.950	0.7864
3450.000000	94.924	0.1231
3500.000000	94.874	-0.5744
3550.000000	94.810	-1.3624
3600.000000	94.728	-2.3718
3650.000000	94.603	-3.6574
3700.000000	94.398	-5.0620
3750.000000	94.095	-6.2144
3820.000000	93.545	-6.6588
3870.000000	93.140	-5.8788
3950.000000	92.652	-3.1803
4000.000000	92.492	-1.1975
4060.000000	92.407	0.9572
4120.000000	92.368	2.7343
4180.000000	92.327	4.2275
4250.000000	92.247	5.8250
4310.000000	92.157	7.2891
4370.000000	92.084	8.9354
4440.000000	92.066	10.9241
4500.000000	92.118	12.4457
4550.000000	92.196	13.4685
4620.000000	92.330	14.4653
4680.000000	92.448	14.9678
4750.000000	92.579	15.2507
4820.000000	92.704	15.2490
4870.000000	92.785	15.0778
4940.000000	92.880	14.6300
5000.000000	92.933	14.0920
5080.000000	92.948	13.2739
5150.000000	92.900	12.6228
5220.000000	92.800	12.1652
5300.000000	92.630	12.0192
5380.000000	92.427	12.3657
5450.000000	92.247	13.0229
5520.000000	92.079	13.8945
5600.000000	91.907	15.0070
5700.000000	91.719	16.4508
5800.000000	91.562	17.9479
5900.000000	91.440	19.4889
6000.000000	91.354	21.0520
6080.000000	91.305	22.2900
6150.000000	91.272	23.3533
6220.000000	91.243	24.4052
6300.000000	91.209	25.6411
6400.000000	91.163	27.3561
6500.000000	91.130	29.3667
6600.000000	91.132	31.6911
6700.000000	91.190	34.2696
6800.000000	91.318	37.0365
6900.000000	91.530	39.9133
7000.000000	91.838	42.7731
7100.000000	92.239	45.4738
7200.000000	92.736	47.8962
7300.000000	93.328	49.9068
7400.000000	94.008	51.3465
7500.000000	94.757	52.0813
7620.000000	95.719	51.8784
7750.000000	96.789	50.0232
7880.000000	97.809	46.1158
8000.000000	98.654	40.5935
8120.000000	99.373	33.0497
8250.000000	99.855	22.1293
8380.000000	99.743	9.4800
8500.000000	99.025	-0.7519
8620.000000	97.887	-7.5439
8750.000000	96.467	-10.9476
8850.000000	95.407	-11.4071
9000.000000	94.071	-9.9273
9120.000000	93.288	-7.9587
9250.000000	92.669	-5.7716
9380.000000	92.187	-3.5473
9500.000000	91.830	-1.3080
9620.000000	91.563	1.1130
9750.000000	91.383	3.8659
9880.000000	91.328	6.6526
10000.000000	91.399	9.1348
10150.000000	91.659	11.9138
10300.000000	92.108	14.0031
10440.000000	92.667	14.9429
10600.000000	93.402	14.4268
10750.000000	94.097	12.1049
10900.000000	94.711	7.8236
11060.000000	95.187	1.1974
11200.000000	95.391	-5.9817
11380.000000	95.294	-16.1959
11500.000000	94.993	-22.9852
11720.000000	93.984	-33.9421
11800.000000	93.493	-37.1703
12060.000000	91.632	-44.5436
12200.000000	90.561	-46.8726
12410.000000	88.952	-48.8242
12500.000000	88.261	-49.1378
12650.000000	87.098	-48.8738
12800.000000	85.921	-47.4927
13150.000000	83.284	-39.7645
13200.000000	82.943	-38.2033
13400.000000	81.725	-31.1249
13600.000000	80.788	-23.1503
13800.000000	80.177	-14.8953
14000.000000	79.936	-6.9385
14300.000000	80.315	3.4831
14500.000000	81.001	8.9748
14750.000000	82.187	13.6915
15000.000000	83.531	15.5233
15250.000000	84.834	14.0613
15500.000000	85.930	8.9283
15750.000000	86.679	-0.2585
16000.000000	86.975	-13.5037
16250.000000	86.748	-29.8386
16500.000000	85.971	-47.2498
16750.000000	84.647	-63.3937
17000.000000	82.797	-76.3450
17250.000000	80.455	-84.4305
17500.000000	77.656	-85.3267
17750.000000	74.453	-76.6331
18000.000000	71.107	-59.7177
18250.000000	68.365	-41.3507
18500.000000	66.918	-27.5670
18750.000000	66.327	-19.0375
19000.000000	65.828	-13.3765
19250.000000	65.104	-8.1147
19500.000000	64.128	-1.5820
19750.000000	62.999	7.0511
20000.000000	61.887	17.7752
