* Measurement data measured by REW V5.20.13
* Source: EXCL: Mic in at front panel (Pink) (Realtek(R) Audio), MICROPHONE (Master Volume), L, volume: 0.250
* Format: 256k Log Swept Sine, 1 sweep at -12.0 dBFS with no timing reference
* Dated: Nov 1, 2022 2:00:48 PM
* REW Settings:
*  C-weighting compensation: Off
*  Target level: 75.0 dB
* Note: Audio Ehiku L
* Measurement: Audio Ehiku L
* Smoothing: 1/12 octave
* Frequency Step: 1/48 octave
* Start Frequency: 20.000 Hz
*
* Freq(Hz)	SPL(dB)	Phase(degrees)
20.000000	99.701	-152.7847
20.299999	99.725	-153.3631
20.600000	99.748	-153.9318
20.900000	99.769	-154.4903
21.200001	99.789	-155.0379
21.400000	99.802	-155.3965
21.799999	99.826	-156.0987
22.000000	99.838	-156.4424
22.400000	99.859	-157.1157
22.700001	99.874	-157.6085
23.000000	99.889	-158.0915
23.299999	99.903	-158.5653
23.600000	99.917	-159.0310
24.000000	99.934	-159.6413
24.299999	99.947	-160.0926
24.700001	99.962	-160.6865
25.000000	99.973	-161.1258
25.400000	99.986	-161.7026
25.799999	99.998	-162.2679
26.200001	100.008	-162.8215
26.500000	100.015	-163.2292
26.900000	100.024	-163.7631
27.200001	100.030	-164.1563
27.600000	100.037	-164.6708
28.000000	100.044	-165.1742
28.500000	100.052	-165.7891
29.000000	100.059	-166.3905
29.500000	100.065	-166.9806
30.000000	100.070	-167.5601
30.400000	100.074	-168.0151
30.700001	100.076	-168.3504
31.100000	100.077	-168.7886
31.500000	100.079	-169.2168
32.000000	100.081	-169.7415
32.500000	100.083	-170.2618
33.000000	100.084	-170.7839
33.500000	100.082	-171.3060
34.000000	100.078	-171.8192
34.500000	100.072	-172.3160
35.000000	100.065	-172.7976
35.500000	100.058	-173.2713
36.000000	100.049	-173.7403
36.500000	100.039	-174.1997
37.000000	100.028	-174.6416
37.500000	100.017	-175.0653
38.200001	100.004	-175.6428
38.700001	99.995	-176.0548
39.500000	99.980	-176.7132
40.000000	99.969	-177.1172
40.599998	99.955	-177.5910
41.200001	99.940	-178.0526
41.799999	99.924	-178.5005
42.500000	99.904	-179.0045
43.099998	99.888	-179.4237
43.700001	99.872	-179.8362
44.400002	99.852	179.6898
45.000000	99.834	179.2920
45.500000	99.819	178.9684
46.200001	99.796	178.5284
46.799999	99.777	178.1618
47.500000	99.755	177.7422
48.200001	99.732	177.3282
48.700001	99.715	177.0368
49.400002	99.691	176.6360
50.000000	99.669	176.2973
50.799999	99.640	175.8505
51.500000	99.612	175.4728
52.200001	99.583	175.1197
53.000000	99.552	174.7465
53.799999	99.525	174.3907
54.500000	99.503	174.0820
55.200001	99.483	173.7710
56.000000	99.460	173.4120
57.000000	99.430	172.9606
58.000000	99.398	172.5060
59.000000	99.362	172.0500
60.000000	99.324	171.6006
60.799999	99.291	171.2493
61.500000	99.261	170.9496
62.200001	99.231	170.6599
63.000000	99.196	170.3427
64.000000	99.154	169.9672
65.000000	99.114	169.6115
66.000000	99.074	169.2686
67.000000	99.035	168.9266
68.000000	98.991	168.5888
69.000000	98.941	168.2906
70.000000	98.894	168.0496
71.000000	98.854	167.8232
72.000000	98.820	167.5630
73.000000	98.786	167.2730
74.000000	98.751	166.9771
75.000000	98.717	166.6855
76.199997	98.675	166.3462
77.500000	98.631	165.9993
78.800003	98.590	165.6669
80.000000	98.552	165.3497
81.199997	98.513	165.0122
82.500000	98.466	164.6294
83.800003	98.412	164.2429
85.000000	98.355	163.9019
86.199997	98.295	163.5960
87.500000	98.229	163.3159
88.500000	98.180	163.1303
90.000000	98.112	162.8691
91.199997	98.061	162.6599
92.500000	98.005	162.4366
93.800003	97.950	162.2224
95.000000	97.900	162.0343
96.199997	97.849	161.8560
97.500000	97.794	161.6745
98.800003	97.739	161.5070
100.000000	97.688	161.3655
101.500000	97.624	161.2064
103.000000	97.564	161.0634
104.400002	97.511	160.9357
106.000000	97.454	160.7858
107.500000	97.403	160.6383
109.000000	97.349	160.4822
110.599998	97.290	160.2997
112.000000	97.236	160.1234
113.800003	97.170	159.9013
115.000000	97.133	159.7950
117.199997	97.095	159.7614
118.000000	97.091	159.7867
120.599998	97.068	159.8849
122.000000	97.026	160.0029
124.099998	96.938	160.1327
125.000000	96.889	160.0948
126.500000	96.787	159.9509
128.000000	96.681	159.8046
131.500000	96.513	159.5114
132.000000	96.497	159.4709
134.000000	96.436	159.3271
136.000000	96.363	159.2367
138.000000	96.273	159.2385
140.000000	96.185	159.3297
143.000000	96.091	159.5690
145.000000	96.058	159.6830
147.500000	96.029	159.6727
150.000000	95.983	159.5380
152.500000	95.910	159.4961
155.000000	95.827	159.6523
157.500000	95.746	159.9388
160.000000	95.687	160.1863
162.500000	95.646	160.1972
165.000000	95.595	160.0556
167.500000	95.527	159.9644
170.000000	95.456	159.9747
172.500000	95.391	160.0307
175.000000	95.333	160.1024
177.500000	95.278	160.1851
180.000000	95.223	160.2661
182.500000	95.169	160.3340
185.000000	95.116	160.3958
187.500000	95.062	160.4740
190.000000	95.006	160.5848
192.500000	94.947	160.7213
195.000000	94.887	160.8759
197.500000	94.826	161.0577
200.000000	94.766	161.2733
203.000000	94.698	161.5361
206.000000	94.639	161.7242
209.000000	94.584	161.8373
212.000000	94.527	161.9463
214.000000	94.486	162.0420
218.000000	94.402	162.3133
220.000000	94.361	162.4893
224.000000	94.289	162.8853
227.000000	94.242	163.1752
230.000000	94.200	163.4411
233.000000	94.160	163.6899
236.000000	94.122	163.9254
240.000000	94.067	164.2216
243.000000	94.021	164.4415
247.000000	93.955	164.7627
250.000000	93.905	165.0495
254.000000	93.845	165.5065
258.000000	93.802	166.0023
262.000000	93.774	166.4545
265.000000	93.756	166.7518
269.000000	93.730	167.1245
272.000000	93.710	167.4027
276.000000	93.685	167.7708
280.000000	93.666	168.1189
285.000000	93.654	168.4893
290.000000	93.646	168.7347
295.000000	93.624	168.8713
300.000000	93.584	169.0161
304.000000	93.545	169.1874
307.000000	93.516	169.3436
311.000000	93.478	169.5688
315.000000	93.439	169.8028
320.000000	93.389	170.1223
325.000000	93.340	170.4899
330.000000	93.299	170.8863
335.000000	93.263	171.2806
340.000000	93.230	171.6581
345.000000	93.197	172.0256
350.000000	93.164	172.3980
355.000000	93.132	172.7800
360.000000	93.102	173.1682
365.000000	93.074	173.5599
370.000000	93.048	173.9545
375.000000	93.023	174.3506
382.000000	92.991	174.9066
387.000000	92.970	175.3055
395.000000	92.941	175.9476
400.000000	92.925	176.3481
406.000000	92.908	176.8201
412.000000	92.892	177.2811
418.000000	92.875	177.7478
425.000000	92.857	178.3221
431.000000	92.847	178.8312
437.000000	92.845	179.3310
444.000000	92.848	179.8855
450.000000	92.855	-179.6792
455.000000	92.862	-179.3611
462.000000	92.865	-178.9700
468.000000	92.858	-178.6314
475.000000	92.846	-178.1927
482.000000	92.837	-177.7268
487.000000	92.830	-177.3919
494.000000	92.820	-176.9046
500.000000	92.813	-176.4564
508.000000	92.812	-175.8479
515.000000	92.815	-175.3373
522.000000	92.817	-174.8388
530.000000	92.819	-174.2533
538.000000	92.825	-173.6483
545.000000	92.835	-173.1187
552.000000	92.847	-172.5938
560.000000	92.864	-172.0089
570.000000	92.887	-171.3074
580.000000	92.909	-170.6112
590.000000	92.931	-169.9025
600.000000	92.956	-169.1712
608.000000	92.980	-168.5817
615.000000	93.003	-168.0726
622.000000	93.026	-167.5601
630.000000	93.053	-166.9514
640.000000	93.096	-166.1636
650.000000	93.149	-165.3741
660.000000	93.214	-164.6100
670.000000	93.289	-163.9292
680.000000	93.360	-163.3362
690.000000	93.423	-162.7713
700.000000	93.482	-162.1878
710.000000	93.542	-161.5763
720.000000	93.606	-160.9572
730.000000	93.673	-160.3420
740.000000	93.742	-159.7271
750.000000	93.814	-159.1090
762.000000	93.904	-158.3628
775.000000	94.009	-157.5533
788.000000	94.120	-156.7481
800.000000	94.230	-155.9982
812.000000	94.351	-155.2446
825.000000	94.498	-154.4840
838.000000	94.653	-153.8419
850.000000	94.791	-153.3287
862.000000	94.925	-152.8380
875.000000	95.069	-152.3021
885.000000	95.183	-151.8851
900.000000	95.358	-151.2699
912.000000	95.504	-150.7863
925.000000	95.669	-150.2764
938.000000	95.841	-149.8018
950.000000	96.005	-149.4066
962.000000	96.171	-149.0458
975.000000	96.354	-148.6789
988.000000	96.541	-148.3295
1000.000000	96.718	-148.0163
1015.000000	96.950	-147.6239
1030.000000	97.202	-147.2550
1044.000000	97.458	-146.9987
1060.000000	97.764	-146.8777
1075.000000	98.055	-146.9163
1090.000000	98.352	-147.0689
1106.000000	98.677	-147.3650
1120.000000	98.968	-147.7614
1138.000000	99.350	-148.4962
1150.000000	99.605	-149.1469
1172.000000	100.065	-150.7042
1180.000000	100.226	-151.3886
1206.000000	100.716	-154.0657
1220.000000	100.944	-155.7899
1241.000000	101.219	-158.6119
1250.000000	101.313	-159.8549
1265.000000	101.441	-161.9190
1280.000000	101.540	-163.9453
1315.000000	101.679	-168.4494
1320.000000	101.690	-169.0655
1340.000000	101.714	-171.4483
1360.000000	101.713	-173.6701
1380.000000	101.700	-175.7191
1400.000000	101.686	-177.6459
1430.000000	101.672	179.4384
1450.000000	101.645	177.3749
1475.000000	101.566	174.7712
1500.000000	101.440	172.2954
1525.000000	101.279	170.0202
1550.000000	101.095	167.9670
1575.000000	100.898	166.1260
1600.000000	100.696	164.4158
1625.000000	100.483	162.7890
1650.000000	100.249	161.2905
1675.000000	99.999	159.9680
1700.000000	99.739	158.8301
1725.000000	99.472	157.8644
1750.000000	99.197	157.0838
1775.000000	98.919	156.5203
1800.000000	98.649	156.1592
1825.000000	98.394	155.9219
1850.000000	98.147	155.7603
1875.000000	97.902	155.6836
1900.000000	97.656	155.7233
1925.000000	97.413	155.9121
1950.000000	97.177	156.2604
1975.000000	96.957	156.7323
2000.000000	96.753	157.2819
2030.000000	96.520	158.0434
2060.000000	96.303	158.9564
2090.000000	96.110	160.0286
2120.000000	95.951	161.2125
2140.000000	95.867	162.0288
2180.000000	95.753	163.5929
2200.000000	95.718	164.2657
2240.000000	95.656	165.3205
2270.000000	95.591	165.9651
2300.000000	95.505	166.6534
2330.000000	95.410	167.5050
2360.000000	95.325	168.5387
2400.000000	95.250	170.0937
2430.000000	95.229	171.3003
2470.000000	95.247	172.8243
2500.000000	95.285	173.8204
2540.000000	95.343	174.9423
2580.000000	95.398	175.9151
2620.000000	95.447	176.8029
2650.000000	95.477	177.4511
2690.000000	95.510	178.3711
2720.000000	95.537	179.1467
2760.000000	95.590	-179.7184
2800.000000	95.671	-178.5393
2850.000000	95.808	-177.0821
2900.000000	95.982	-175.6810
2950.000000	96.198	-174.3271
3000.000000	96.470	-173.0986
3040.000000	96.725	-172.3189
3070.000000	96.933	-171.8865
3110.000000	97.227	-171.5305
3150.000000	97.539	-171.4696
3200.000000	97.936	-171.9044
3250.000000	98.312	-172.9668
3300.000000	98.630	-174.6137
3350.000000	98.864	-176.6745
3400.000000	99.003	-178.9273
3450.000000	99.040	178.9023
3500.000000	98.993	177.1382
3550.000000	98.907	175.9814
3600.000000	98.837	175.4015
3650.000000	98.820	175.1995
3700.000000	98.875	175.1222
3750.000000	98.999	174.9317
3820.000000	99.256	174.0604
3870.000000	99.455	172.8380
3950.000000	99.720	169.8536
4000.000000	99.817	167.4376
4060.000000	99.834	164.1638
4120.000000	99.724	160.7811
4180.000000	99.490	157.6199
4250.000000	99.085	154.5457
4310.000000	98.656	152.6459
4370.000000	98.191	151.4776
4440.000000	97.647	150.9222
4500.000000	97.200	151.0139
4550.000000	96.848	151.4291
4620.000000	96.397	152.4434
4680.000000	96.051	153.6737
4750.000000	95.707	155.4847
4820.000000	95.443	157.5747
4870.000000	95.306	159.1508
4940.000000	95.182	161.3875
5000.000000	95.134	163.2795
5080.000000	95.144	165.7351
5150.000000	95.230	167.8095
5220.000000	95.400	169.7220
5300.000000	95.698	171.4999
5380.000000	96.093	172.5668
5450.000000	96.489	172.6902
5520.000000	96.893	171.9042
5600.000000	97.313	169.7601
5700.000000	97.662	165.2005
5800.000000	97.681	159.1487
5900.000000	97.283	153.0073
6000.000000	96.491	148.4316
6080.000000	95.653	146.6313
6150.000000	94.843	146.5534
6220.000000	94.020	147.7969
6300.000000	93.129	150.6442
6400.000000	92.185	155.9376
6500.000000	91.528	162.5650
6600.000000	91.227	169.8213
6700.000000	91.296	177.0024
6800.000000	91.689	-176.5417
6900.000000	92.309	-171.3909
7000.000000	93.024	-167.9308
7100.000000	93.707	-166.1415
7200.000000	94.285	-165.5403
7300.000000	94.761	-165.4438
7400.000000	95.197	-165.3644
7500.000000	95.670	-165.2472
7620.000000	96.338	-165.5990
7750.000000	97.101	-167.7265
7880.000000	97.664	-172.3211
8000.000000	97.813	-177.8106
8120.000000	97.588	177.3717
8250.000000	97.086	174.4304
8380.000000	96.566	173.9757
8500.000000	96.247	174.9955
8620.000000	96.148	176.5039
8750.000000	96.264	177.9728
8850.000000	96.482	178.7714
9000.000000	97.013	179.1645
9120.000000	97.607	178.2612
9250.000000	98.333	175.1613
9380.000000	98.966	169.0543
9500.000000	99.268	160.7311
9620.000000	99.148	150.9728
9750.000000	98.474	141.0934
9880.000000	97.305	134.1270
10000.000000	95.935	131.0630
10150.000000	94.085	131.2988
10300.000000	92.359	134.6699
10440.000000	91.039	139.3382
10600.000000	89.950	145.3419
10750.000000	89.309	150.9262
10900.000000	88.968	156.0660
11060.000000	88.878	160.7835
11200.000000	89.006	163.8854
11380.000000	89.355	165.5049
11500.000000	89.579	164.6001
11720.000000	89.584	159.2669
11800.000000	89.384	156.8344
12060.000000	87.961	151.4988
12200.000000	86.844	151.6310
12410.000000	85.032	155.8088
12500.000000	84.288	158.7163
12650.000000	83.172	164.5334
12800.000000	82.259	171.1013
13150.000000	80.938	-172.6366
13200.000000	80.830	-170.3132
13400.000000	80.566	-161.1571
13600.000000	80.544	-152.2887
13800.000000	80.754	-143.8206
14000.000000	81.200	-135.9517
14300.000000	82.273	-126.0361
14500.000000	83.169	-121.3472
14750.000000	84.303	-118.3053
15000.000000	85.247	-118.3269
15250.000000	85.877	-120.2616
15500.000000	86.249	-122.3825
15750.000000	86.578	-123.7289
16000.000000	87.095	-124.7485
16250.000000	87.906	-126.8647
16500.000000	88.895	-132.2706
16750.000000	89.675	-143.0417
17000.000000	89.790	-158.5843
17250.000000	88.998	-174.6001
17500.000000	87.369	173.5266
17750.000000	85.162	167.3787
18000.000000	82.659	166.1538
18250.000000	80.082	168.5936
18500.000000	77.581	173.7903
18750.000000	75.261	-178.8699
19000.000000	73.202	-169.8969
19250.000000	71.465	-159.7588
19500.000000	70.088	-148.8873
19750.000000	69.084	-137.6932
20000.000000	68.447	-126.6144
