* Measurement data measured by REW V5.20.4
* Source: Mic in at front panel (Pink) (Realtek(R) Audio), MICROPHONE (Master Volume), L, volume: 0.250
* Format: 256k Log Swept Sine, 1 sweep at -12.0 dBFS with no timing reference
* Dated: Jul 9, 2022 12:08:42 AM
* REW Settings:
*  C-weighting compensation: Off
*  Target level: 75.0 dB
* Note: AXS Audio Pro L
* Measurement: AXS Audio Pro L
* Smoothing: 1/12 octave
* Frequency Step: 1/48 octave
* Start Frequency: 20.000 Hz
*
* Freq(Hz)	SPL(dB)	Phase(degrees)
20.000000	101.420	65.5036
20.299999	101.505	64.9506
20.600000	101.582	64.4000
20.900000	101.653	63.8573
21.200001	101.721	63.3269
21.400000	101.765	62.9811
21.799999	101.856	62.3080
22.000000	101.902	61.9804
22.400000	101.996	61.3427
22.700001	102.067	60.8796
23.000000	102.137	60.4299
23.299999	102.206	59.9932
23.600000	102.276	59.5683
24.000000	102.367	59.0166
24.299999	102.435	58.6106
24.700001	102.521	58.0759
25.000000	102.583	57.6786
25.400000	102.661	57.1532
25.799999	102.738	56.6326
26.200001	102.812	56.1164
26.500000	102.866	55.7320
26.900000	102.934	55.2232
27.200001	102.982	54.8456
27.600000	103.042	54.3493
28.000000	103.099	53.8642
28.500000	103.169	53.2758
29.000000	103.241	52.7074
29.500000	103.313	52.1562
30.000000	103.384	51.6187
30.400000	103.441	51.1968
30.700001	103.484	50.8849
31.100000	103.541	50.4759
31.500000	103.597	50.0756
32.000000	103.662	49.5887
32.500000	103.724	49.1156
33.000000	103.783	48.6530
33.500000	103.843	48.1993
34.000000	103.903	47.7552
34.500000	103.964	47.3226
35.000000	104.024	46.9027
35.500000	104.087	46.4961
36.000000	104.151	46.1036
36.500000	104.216	45.7243
37.000000	104.281	45.3543
37.500000	104.342	44.9877
38.200001	104.418	44.4738
38.700001	104.465	44.1093
39.500000	104.533	43.5457
40.000000	104.577	43.2087
40.599998	104.634	42.8168
41.200001	104.695	42.4356
41.799999	104.760	42.0643
42.500000	104.839	41.6432
43.099998	104.909	41.2908
43.700001	104.981	40.9443
44.400002	105.064	40.5471
45.000000	105.133	40.2120
45.500000	105.191	39.9353
46.200001	105.272	39.5491
46.799999	105.342	39.2169
47.500000	105.422	38.8249
48.200001	105.500	38.4249
48.700001	105.556	38.1328
49.400002	105.635	37.7126
50.000000	105.708	37.3395
50.799999	105.813	36.8186
51.500000	105.911	36.3371
52.200001	106.011	35.8285
53.000000	106.122	35.2093
53.799999	106.233	34.5431
54.500000	106.330	33.9178
55.200001	106.426	33.2516
56.000000	106.534	32.4370
57.000000	106.661	31.3338
58.000000	106.772	30.1409
59.000000	106.867	28.8728
60.000000	106.944	27.5483
60.799999	106.992	26.4640
61.500000	107.024	25.5076
62.200001	107.049	24.5524
63.000000	107.067	23.4717
64.000000	107.075	22.1519
65.000000	107.065	20.8834
66.000000	107.038	19.6838
67.000000	106.997	18.5697
68.000000	106.948	17.5504
69.000000	106.891	16.6252
70.000000	106.828	15.7904
71.000000	106.760	15.0410
72.000000	106.693	14.3701
73.000000	106.630	13.7699
74.000000	106.572	13.2327
75.000000	106.519	12.7509
76.199997	106.457	12.2357
77.500000	106.391	11.7427
78.800003	106.329	11.3065
80.000000	106.276	10.9463
81.199997	106.228	10.6202
82.500000	106.182	10.2986
83.800003	106.143	10.0022
85.000000	106.113	9.7456
86.199997	106.084	9.5016
87.500000	106.052	9.2473
88.500000	106.027	9.0571
90.000000	105.991	8.7797
91.199997	105.965	8.5641
92.500000	105.941	8.3379
93.800003	105.923	8.1203
95.000000	105.911	7.9250
96.199997	105.900	7.7314
97.500000	105.888	7.5214
98.800003	105.872	7.3122
100.000000	105.856	7.1207
101.500000	105.838	6.8835
103.000000	105.824	6.6497
104.400002	105.816	6.4356
106.000000	105.808	6.1958
107.500000	105.797	5.9749
109.000000	105.783	5.7573
110.599998	105.767	5.5286
112.000000	105.754	5.3315
113.800003	105.742	5.0829
115.000000	105.735	4.9206
117.199997	105.723	4.6313
118.000000	105.719	4.5281
120.599998	105.706	4.1881
122.000000	105.702	3.9991
124.099998	105.697	3.7167
125.000000	105.694	3.5985
126.500000	105.689	3.4061
128.000000	105.682	3.2185
131.500000	105.653	2.7902
132.000000	105.650	2.7298
134.000000	105.638	2.4913
136.000000	105.631	2.2572
138.000000	105.623	2.0260
140.000000	105.613	1.7968
143.000000	105.600	1.4558
145.000000	105.594	1.2313
147.500000	105.585	0.9589
150.000000	105.574	0.6989
152.500000	105.569	0.4436
155.000000	105.568	0.1855
157.500000	105.569	-0.0743
160.000000	105.567	-0.3320
162.500000	105.563	-0.5844
165.000000	105.553	-0.8342
167.500000	105.529	-1.0850
170.000000	105.489	-1.3373
172.500000	105.438	-1.5892
175.000000	105.384	-1.8376
177.500000	105.336	-2.0800
180.000000	105.303	-2.3171
182.500000	105.290	-2.5529
185.000000	105.292	-2.7886
187.500000	105.302	-3.0215
190.000000	105.311	-3.2473
192.500000	105.316	-3.4644
195.000000	105.314	-3.6730
197.500000	105.306	-3.8719
200.000000	105.292	-4.0592
203.000000	105.273	-4.2700
206.000000	105.255	-4.4703
209.000000	105.236	-4.6656
212.000000	105.215	-4.8605
214.000000	105.201	-4.9915
218.000000	105.171	-5.2557
220.000000	105.156	-5.3885
224.000000	105.127	-5.6536
227.000000	105.106	-5.8501
230.000000	105.087	-6.0428
233.000000	105.068	-6.2312
236.000000	105.048	-6.4139
240.000000	105.020	-6.6451
243.000000	104.998	-6.8080
247.000000	104.967	-7.0137
250.000000	104.945	-7.1609
254.000000	104.917	-7.3462
258.000000	104.890	-7.5172
262.000000	104.861	-7.6763
265.000000	104.838	-7.7906
269.000000	104.806	-7.9396
272.000000	104.780	-8.0492
276.000000	104.744	-8.1930
280.000000	104.708	-8.3331
285.000000	104.663	-8.5022
290.000000	104.619	-8.6647
295.000000	104.571	-8.8143
300.000000	104.519	-8.9357
304.000000	104.477	-8.9962
307.000000	104.446	-9.0108
311.000000	104.405	-8.9858
315.000000	104.368	-8.9232
320.000000	104.334	-8.8372
325.000000	104.314	-8.7955
330.000000	104.300	-8.8214
335.000000	104.281	-8.9021
340.000000	104.256	-9.0127
345.000000	104.227	-9.1328
350.000000	104.198	-9.2490
355.000000	104.170	-9.3541
360.000000	104.140	-9.4476
365.000000	104.104	-9.5300
370.000000	104.066	-9.6006
375.000000	104.027	-9.6595
382.000000	103.976	-9.7245
387.000000	103.941	-9.7596
395.000000	103.884	-9.7972
400.000000	103.847	-9.8093
406.000000	103.800	-9.8134
412.000000	103.754	-9.8067
418.000000	103.708	-9.7887
425.000000	103.659	-9.7530
431.000000	103.618	-9.7106
437.000000	103.578	-9.6578
444.000000	103.530	-9.5834
450.000000	103.488	-9.5083
455.000000	103.454	-9.4376
462.000000	103.408	-9.3265
468.000000	103.370	-9.2210
475.000000	103.329	-9.0863
482.000000	103.289	-8.9390
487.000000	103.261	-8.8260
494.000000	103.221	-8.6572
500.000000	103.188	-8.5034
508.000000	103.147	-8.2876
515.000000	103.113	-8.0905
522.000000	103.080	-7.8860
530.000000	103.044	-7.6409
538.000000	103.009	-7.3810
545.000000	102.982	-7.1414
552.000000	102.955	-6.8900
560.000000	102.926	-6.5852
570.000000	102.890	-6.1701
580.000000	102.853	-5.7098
590.000000	102.812	-5.1992
600.000000	102.775	-4.6365
608.000000	102.753	-4.1509
615.000000	102.740	-3.7048
622.000000	102.733	-3.2439
630.000000	102.730	-2.7053
640.000000	102.736	-2.0272
650.000000	102.753	-1.3641
660.000000	102.783	-0.7369
670.000000	102.827	-0.1627
680.000000	102.881	0.3439
690.000000	102.941	0.7712
700.000000	103.009	1.1102
710.000000	103.083	1.3540
720.000000	103.162	1.4950
730.000000	103.243	1.5245
740.000000	103.320	1.4371
750.000000	103.389	1.2341
762.000000	103.456	0.8507
775.000000	103.500	0.2971
788.000000	103.513	-0.3417
800.000000	103.493	-0.9415
812.000000	103.443	-1.4871
825.000000	103.358	-1.9537
838.000000	103.250	-2.2429
850.000000	103.136	-2.3296
862.000000	103.015	-2.2374
875.000000	102.884	-1.9420
885.000000	102.789	-1.5875
900.000000	102.663	-0.8788
912.000000	102.579	-0.1917
925.000000	102.508	0.6355
938.000000	102.459	1.5137
950.000000	102.431	2.3429
962.000000	102.420	3.1731
975.000000	102.425	4.0638
988.000000	102.446	4.9398
1000.000000	102.479	5.7292
1015.000000	102.532	6.6800
1030.000000	102.596	7.5785
1044.000000	102.662	8.3585
1060.000000	102.743	9.1707
1075.000000	102.823	9.8549
1090.000000	102.906	10.4697
1106.000000	102.999	11.0563
1120.000000	103.080	11.5175
1138.000000	103.181	12.0489
1150.000000	103.244	12.3698
1172.000000	103.352	12.8980
1180.000000	103.390	13.0715
1206.000000	103.509	13.5579
1220.000000	103.571	13.7656
1241.000000	103.658	14.0098
1250.000000	103.693	14.0938
1265.000000	103.748	14.2147
1280.000000	103.799	14.3221
1315.000000	103.910	14.5597
1320.000000	103.925	14.5939
1340.000000	103.985	14.7339
1360.000000	104.045	14.8802
1380.000000	104.104	15.0346
1400.000000	104.163	15.1986
1430.000000	104.255	15.4686
1450.000000	104.321	15.6694
1475.000000	104.414	15.9466
1500.000000	104.526	16.2466
1525.000000	104.658	16.5596
1550.000000	104.802	16.8788
1575.000000	104.937	17.2010
1600.000000	105.029	17.5278
1625.000000	105.047	17.8727
1650.000000	104.986	18.2615
1675.000000	104.878	18.7155
1700.000000	104.774	19.2300
1725.000000	104.716	19.7793
1750.000000	104.723	20.3422
1775.000000	104.788	20.9224
1800.000000	104.893	21.5437
1825.000000	105.023	22.2253
1850.000000	105.167	22.9692
1875.000000	105.322	23.7606
1900.000000	105.486	24.5773
1925.000000	105.657	25.4026
1950.000000	105.834	26.2284
1975.000000	106.018	27.0491
2000.000000	106.210	27.8578
2030.000000	106.453	28.7968
2060.000000	106.711	29.6768
2090.000000	106.983	30.4679
2120.000000	107.266	31.1409
2140.000000	107.461	31.5123
2180.000000	107.866	32.0341
2200.000000	108.076	32.1595
2240.000000	108.504	32.0775
2270.000000	108.827	31.7079
2300.000000	109.146	31.0838
2330.000000	109.456	30.2227
2360.000000	109.750	29.1410
2400.000000	110.112	27.3900
2430.000000	110.354	25.8810
2470.000000	110.630	23.6769
2500.000000	110.800	21.9370
2540.000000	110.978	19.5899
2580.000000	111.106	17.2985
2620.000000	111.195	15.1272
2650.000000	111.243	13.5964
2690.000000	111.292	11.6886
2720.000000	111.321	10.3478
2760.000000	111.356	8.6454
2800.000000	111.389	6.9807
2850.000000	111.425	4.8671
2900.000000	111.441	2.6804
2950.000000	111.422	0.4500
3000.000000	111.358	-1.7477
3040.000000	111.278	-3.4188
3070.000000	111.206	-4.5940
3110.000000	111.099	-6.0397
3150.000000	110.985	-7.3458
3200.000000	110.834	-8.7886
3250.000000	110.672	-9.9952
3300.000000	110.498	-10.8846
3350.000000	110.317	-11.3765
3400.000000	110.133	-11.4591
3450.000000	109.952	-11.1854
3500.000000	109.784	-10.6323
3550.000000	109.641	-9.8883
3600.000000	109.530	-9.0456
3650.000000	109.452	-8.1791
3700.000000	109.406	-7.3283
3750.000000	109.389	-6.5018
3820.000000	109.413	-5.3796
3870.000000	109.465	-4.6110
3950.000000	109.603	-3.5197
4000.000000	109.713	-3.0109
4060.000000	109.856	-2.6800
4120.000000	109.997	-2.7054
4180.000000	110.131	-3.0754
4250.000000	110.270	-3.9029
4310.000000	110.371	-4.9404
4370.000000	110.452	-6.2814
4440.000000	110.515	-8.2177
4500.000000	110.535	-10.1653
4550.000000	110.523	-11.9573
4620.000000	110.455	-14.6552
4680.000000	110.344	-17.0663
4750.000000	110.151	-19.8842
4820.000000	109.889	-22.5852
4870.000000	109.662	-24.3742
4940.000000	109.296	-26.5967
5000.000000	108.943	-28.1793
5080.000000	108.426	-29.7538
5150.000000	107.940	-30.5914
5220.000000	107.433	-30.9160
5300.000000	106.841	-30.6810
5380.000000	106.248	-29.8513
5450.000000	105.736	-28.6910
5520.000000	105.237	-27.1781
5600.000000	104.693	-25.0809
5700.000000	104.069	-21.9950
5800.000000	103.525	-18.4650
5900.000000	103.074	-14.5054
6000.000000	102.726	-10.0521
6080.000000	102.532	-6.1210
6150.000000	102.429	-2.5011
6220.000000	102.379	1.1808
6300.000000	102.379	5.4013
6400.000000	102.460	10.6639
6500.000000	102.637	15.8408
6600.000000	102.914	20.8169
6700.000000	103.284	25.4734
6800.000000	103.738	29.7000
6900.000000	104.259	33.3964
7000.000000	104.825	36.4822
7100.000000	105.414	38.9038
7200.000000	106.009	40.6328
7300.000000	106.601	41.6532
7400.000000	107.192	41.9717
7500.000000	107.796	41.6512
7620.000000	108.567	40.5129
7750.000000	109.490	38.1439
7880.000000	110.463	33.7691
8000.000000	111.269	26.8970
8120.000000	111.813	16.6401
8250.000000	111.956	2.2372
8380.000000	111.563	-13.1912
8500.000000	110.709	-25.5134
8620.000000	109.448	-34.4692
8750.000000	107.792	-40.5178
8850.000000	106.442	-43.2633
9000.000000	104.455	-45.5306
9120.000000	102.953	-46.4449
9250.000000	101.409	-46.8151
9380.000000	99.929	-46.5095
9500.000000	98.606	-45.5430
9620.000000	97.325	-43.8761
9750.000000	95.992	-41.2985
9880.000000	94.735	-38.0035
10000.000000	93.661	-34.4409
10150.000000	92.454	-29.4757
10300.000000	91.411	-24.1729
10440.000000	90.590	-19.1431
10600.000000	89.829	-13.5673
10750.000000	89.259	-8.7401
10900.000000	88.791	-4.4815
11060.000000	88.366	-0.6770
11200.000000	88.021	2.0317
11380.000000	87.552	4.8341
11500.000000	87.197	6.4525
11720.000000	86.422	9.4642
11800.000000	86.101	10.7258
12060.000000	84.969	16.0065
12200.000000	84.354	19.7057
12410.000000	83.522	26.1882
12500.000000	83.212	29.2150
12650.000000	82.764	34.4894
12800.000000	82.402	39.9795
13150.000000	81.905	53.2206
13200.000000	81.877	55.1082
13400.000000	81.873	62.4416
13600.000000	82.050	69.1985
13800.000000	82.441	75.2457
14000.000000	83.139	80.5728
14300.000000	84.994	86.9978
14500.000000	86.817	89.7420
14750.000000	89.541	90.0039
15000.000000	92.259	84.0002
15250.000000	94.327	68.6472
15500.000000	95.190	44.8649
15750.000000	94.632	20.2189
16000.000000	92.929	2.3243
16250.000000	90.707	-7.8257
16500.000000	88.737	-13.4524
16750.000000	87.690	-17.8810
17000.000000	87.762	-23.5936
17250.000000	88.623	-32.9465
17500.000000	89.702	-48.3577
17750.000000	90.409	-70.9852
18000.000000	90.304	-98.5015
18250.000000	89.227	-125.3130
18500.000000	87.306	-146.8196
18750.000000	84.826	-162.3670
19000.000000	82.097	-173.8348
19250.000000	79.386	176.7034
19500.000000	76.880	167.8541
19750.000000	74.690	158.7722
20000.000000	72.858	148.5553
