* Measurement data measured by REW V5.20.13
* Source: EXCL: Mic in at front panel (Pink) (Realtek(R) Audio), MICROPHONE (Master Volume), L, volume: 0.250
* Format: 256k Log Swept Sine, 1 sweep at -12.0 dBFS with no timing reference
* Dated: Oct 29, 2022 12:33:40 AM
* REW Settings:
*  C-weighting compensation: Off
*  Target level: 75.0 dB
* Note: BGVP Melody Balanced R
* Measurement: BGVP Melody Balanced R
* Smoothing: 1/12 octave
* Frequency Step: 1/48 octave
* Start Frequency: 20.000 Hz
*
* Freq(Hz)	SPL(dB)	Phase(degrees)
20.000000	96.856	-139.6443
20.299999	96.894	-140.2225
20.600000	96.930	-140.7891
20.900000	96.964	-141.3434
21.200001	96.997	-141.8843
21.400000	97.018	-142.2367
21.799999	97.058	-142.9212
22.000000	97.077	-143.2532
22.400000	97.115	-143.8981
22.700001	97.143	-144.3678
23.000000	97.171	-144.8288
23.299999	97.199	-145.2841
23.600000	97.226	-145.7351
24.000000	97.261	-146.3299
24.299999	97.285	-146.7693
24.700001	97.316	-147.3432
25.000000	97.338	-147.7632
25.400000	97.367	-148.3098
25.799999	97.394	-148.8441
26.200001	97.421	-149.3687
26.500000	97.439	-149.7553
26.900000	97.462	-150.2590
27.200001	97.479	-150.6255
27.600000	97.500	-151.0976
28.000000	97.521	-151.5527
28.500000	97.548	-152.1062
29.000000	97.574	-152.6518
29.500000	97.599	-153.1903
30.000000	97.621	-153.7143
30.400000	97.639	-154.1196
30.700001	97.651	-154.4161
31.100000	97.669	-154.8059
31.500000	97.686	-155.1941
32.000000	97.706	-155.6797
32.500000	97.724	-156.1605
33.000000	97.740	-156.6269
33.500000	97.755	-157.0759
34.000000	97.770	-157.5141
34.500000	97.786	-157.9504
35.000000	97.800	-158.3864
35.500000	97.812	-158.8160
36.000000	97.822	-159.2310
36.500000	97.832	-159.6288
37.000000	97.842	-160.0130
37.500000	97.852	-160.3892
38.200001	97.867	-160.9092
38.700001	97.876	-161.2751
39.500000	97.888	-161.8419
40.000000	97.895	-162.1800
40.599998	97.903	-162.5700
41.200001	97.911	-162.9508
41.799999	97.920	-163.3302
42.500000	97.928	-163.7706
43.099998	97.932	-164.1375
43.700001	97.936	-164.4896
44.400002	97.940	-164.8861
45.000000	97.944	-165.2196
45.500000	97.947	-165.4942
46.200001	97.950	-165.8708
46.799999	97.951	-166.1820
47.500000	97.951	-166.5235
48.200001	97.953	-166.8370
48.700001	97.955	-167.0486
49.400002	97.961	-167.3419
50.000000	97.966	-167.5969
50.799999	97.972	-167.9344
51.500000	97.978	-168.2215
52.200001	97.983	-168.5086
53.000000	97.988	-168.8433
53.799999	97.992	-169.1775
54.500000	97.994	-169.4644
55.200001	97.997	-169.7483
56.000000	98.002	-170.0724
57.000000	98.008	-170.4831
58.000000	98.014	-170.9003
59.000000	98.017	-171.3072
60.000000	98.018	-171.7022
60.799999	98.015	-172.0116
61.500000	98.009	-172.2679
62.200001	98.002	-172.5035
63.000000	97.993	-172.7523
64.000000	97.983	-173.0526
65.000000	97.976	-173.3543
66.000000	97.972	-173.6646
67.000000	97.971	-174.0065
68.000000	97.966	-174.3641
69.000000	97.957	-174.6632
70.000000	97.957	-174.8938
71.000000	97.966	-175.1286
72.000000	97.975	-175.3993
73.000000	97.978	-175.6699
74.000000	97.978	-175.9217
75.000000	97.979	-176.1742
76.199997	97.980	-176.4879
77.500000	97.983	-176.8355
78.800003	97.990	-177.2076
80.000000	97.997	-177.5766
81.199997	98.003	-177.9580
82.500000	98.003	-178.3717
83.800003	97.995	-178.7706
85.000000	97.981	-179.1214
86.199997	97.962	-179.4645
87.500000	97.935	-179.8222
88.500000	97.914	179.9216
90.000000	97.886	179.5668
91.199997	97.868	179.3043
92.500000	97.852	179.0381
93.800003	97.838	178.7832
95.000000	97.823	178.5516
96.199997	97.807	178.3211
97.500000	97.787	178.0728
98.800003	97.767	177.8283
100.000000	97.750	177.6131
101.500000	97.731	177.3721
103.000000	97.714	177.1667
104.400002	97.701	176.9916
106.000000	97.687	176.7835
107.500000	97.676	176.5700
109.000000	97.670	176.3292
110.599998	97.664	176.0249
112.000000	97.652	175.7190
113.800003	97.618	175.2731
115.000000	97.584	174.9302
117.199997	97.504	174.2177
118.000000	97.473	173.9730
120.599998	97.400	173.5722
122.000000	97.404	173.6017
124.099998	97.438	173.6747
125.000000	97.447	173.6839
126.500000	97.446	173.6670
128.000000	97.428	173.5963
131.500000	97.374	173.1851
132.000000	97.367	173.1086
134.000000	97.346	172.8050
136.000000	97.325	172.5340
138.000000	97.302	172.2956
140.000000	97.275	172.0686
143.000000	97.233	171.7116
145.000000	97.203	171.4675
147.500000	97.165	171.1848
150.000000	97.127	170.9305
152.500000	97.087	170.7096
155.000000	97.048	170.5466
157.500000	97.016	170.4116
160.000000	96.989	170.2483
162.500000	96.962	170.0452
165.000000	96.931	169.8217
167.500000	96.896	169.5977
170.000000	96.858	169.3958
172.500000	96.818	169.2273
175.000000	96.782	169.0817
177.500000	96.749	168.9432
180.000000	96.718	168.8007
182.500000	96.687	168.6427
185.000000	96.656	168.4683
187.500000	96.625	168.2925
190.000000	96.593	168.1328
192.500000	96.557	167.9883
195.000000	96.520	167.8405
197.500000	96.480	167.6838
200.000000	96.440	167.5388
203.000000	96.393	167.4001
206.000000	96.354	167.2950
209.000000	96.317	167.2179
212.000000	96.273	167.1458
214.000000	96.240	167.0769
218.000000	96.176	166.8740
220.000000	96.145	166.7728
224.000000	96.090	166.6318
227.000000	96.054	166.5602
230.000000	96.019	166.4941
233.000000	95.982	166.4144
236.000000	95.944	166.3092
240.000000	95.888	166.1525
243.000000	95.844	166.0479
247.000000	95.782	165.9456
250.000000	95.734	165.9067
254.000000	95.672	165.9096
258.000000	95.621	165.9380
262.000000	95.577	165.9258
265.000000	95.543	165.8840
269.000000	95.493	165.8253
272.000000	95.452	165.8030
276.000000	95.400	165.8081
280.000000	95.352	165.8391
285.000000	95.300	165.8765
290.000000	95.255	165.8431
295.000000	95.201	165.7275
300.000000	95.131	165.6316
304.000000	95.069	165.6194
307.000000	95.022	165.6472
311.000000	94.961	165.7211
315.000000	94.904	165.8292
320.000000	94.840	166.0128
325.000000	94.788	166.2297
330.000000	94.750	166.4171
335.000000	94.719	166.5270
340.000000	94.686	166.5625
345.000000	94.645	166.5659
350.000000	94.596	166.5787
355.000000	94.544	166.6150
360.000000	94.491	166.6710
365.000000	94.437	166.7421
370.000000	94.382	166.8271
375.000000	94.328	166.9271
382.000000	94.254	167.0909
387.000000	94.202	167.2209
395.000000	94.122	167.4480
400.000000	94.074	167.6002
406.000000	94.018	167.7852
412.000000	93.962	167.9688
418.000000	93.904	168.1664
425.000000	93.838	168.4381
431.000000	93.787	168.6987
437.000000	93.742	168.9590
444.000000	93.695	169.2443
450.000000	93.659	169.4576
455.000000	93.630	169.5968
462.000000	93.582	169.7476
468.000000	93.531	169.8890
475.000000	93.468	170.1068
482.000000	93.406	170.3592
487.000000	93.362	170.5457
494.000000	93.299	170.8307
500.000000	93.246	171.1115
508.000000	93.184	171.5058
515.000000	93.133	171.8389
522.000000	93.081	172.1704
530.000000	93.021	172.5769
538.000000	92.965	173.0125
545.000000	92.920	173.4008
552.000000	92.877	173.7916
560.000000	92.832	174.2311
570.000000	92.777	174.7621
580.000000	92.720	175.2979
590.000000	92.664	175.8551
600.000000	92.610	176.4434
608.000000	92.571	176.9246
615.000000	92.538	177.3434
622.000000	92.505	177.7703
630.000000	92.468	178.2871
640.000000	92.430	178.9677
650.000000	92.401	179.6563
660.000000	92.384	-179.6737
670.000000	92.375	-179.0774
680.000000	92.363	-178.5574
690.000000	92.343	-178.0553
700.000000	92.318	-177.5267
710.000000	92.293	-176.9644
720.000000	92.273	-176.3911
730.000000	92.255	-175.8219
740.000000	92.239	-175.2576
750.000000	92.224	-174.6974
762.000000	92.207	-174.0316
775.000000	92.190	-173.3219
788.000000	92.171	-172.6225
800.000000	92.150	-171.9624
812.000000	92.131	-171.2736
825.000000	92.114	-170.5315
838.000000	92.094	-169.8268
850.000000	92.065	-169.1621
862.000000	92.027	-168.4143
875.000000	91.986	-167.4767
885.000000	91.962	-166.6715
900.000000	91.941	-165.3731
912.000000	91.942	-164.2826
925.000000	91.960	-163.0814
938.000000	91.998	-161.9017
950.000000	92.045	-160.8585
962.000000	92.100	-159.8620
975.000000	92.166	-158.8260
988.000000	92.239	-157.8291
1000.000000	92.310	-156.9359
1015.000000	92.408	-155.8375
1030.000000	92.520	-154.7750
1044.000000	92.637	-153.8722
1060.000000	92.777	-152.9968
1075.000000	92.900	-152.2918
1090.000000	93.016	-151.6384
1106.000000	93.134	-150.9698
1120.000000	93.234	-150.3979
1138.000000	93.361	-149.6639
1150.000000	93.446	-149.1703
1172.000000	93.611	-148.2635
1180.000000	93.676	-147.9404
1206.000000	93.903	-147.0180
1220.000000	94.028	-146.6605
1241.000000	94.198	-146.2731
1250.000000	94.264	-146.1309
1265.000000	94.365	-145.8944
1280.000000	94.459	-145.6436
1315.000000	94.669	-144.9918
1320.000000	94.699	-144.8969
1340.000000	94.814	-144.5218
1360.000000	94.924	-144.1346
1380.000000	95.030	-143.7001
1400.000000	95.140	-143.1978
1430.000000	95.330	-142.4215
1450.000000	95.466	-141.9845
1475.000000	95.632	-141.5152
1500.000000	95.792	-141.0732
1525.000000	95.948	-140.6160
1550.000000	96.108	-140.1166
1575.000000	96.281	-139.5905
1600.000000	96.470	-139.1316
1625.000000	96.662	-138.7940
1650.000000	96.847	-138.5334
1675.000000	97.028	-138.3000
1700.000000	97.207	-138.0811
1725.000000	97.386	-137.8854
1750.000000	97.561	-137.6967
1775.000000	97.739	-137.4778
1800.000000	97.927	-137.2367
1825.000000	98.129	-137.0463
1850.000000	98.337	-136.9504
1875.000000	98.543	-136.9369
1900.000000	98.747	-136.9744
1925.000000	98.950	-137.0323
1950.000000	99.158	-137.1044
1975.000000	99.376	-137.2307
2000.000000	99.599	-137.4608
2030.000000	99.863	-137.8817
2060.000000	100.118	-138.4282
2090.000000	100.363	-139.0796
2120.000000	100.595	-139.8147
2140.000000	100.740	-140.3205
2180.000000	101.024	-141.2866
2200.000000	101.170	-141.7560
2240.000000	101.477	-142.7575
2270.000000	101.721	-143.6212
2300.000000	101.975	-144.6463
2330.000000	102.232	-145.9025
2360.000000	102.480	-147.4495
2400.000000	102.761	-149.9691
2430.000000	102.918	-152.0974
2470.000000	103.043	-155.0325
2500.000000	103.078	-157.1650
2540.000000	103.062	-159.7246
2580.000000	103.010	-161.8501
2620.000000	102.959	-163.6425
2650.000000	102.929	-164.8916
2690.000000	102.891	-166.5399
2720.000000	102.857	-167.7786
2760.000000	102.800	-169.4258
2800.000000	102.722	-171.0456
2850.000000	102.592	-172.9622
2900.000000	102.425	-174.6781
2950.000000	102.229	-176.0786
3000.000000	102.027	-177.1515
3040.000000	101.869	-177.8362
3070.000000	101.750	-178.2561
3110.000000	101.595	-178.6755
3150.000000	101.450	-178.9482
3200.000000	101.289	-179.1592
3250.000000	101.146	-179.3002
3300.000000	101.008	-179.3816
3350.000000	100.873	-179.3399
3400.000000	100.746	-179.1408
3450.000000	100.635	-178.7872
3500.000000	100.548	-178.2771
3550.000000	100.497	-177.6680
3600.000000	100.484	-177.0764
3650.000000	100.500	-176.5877
3700.000000	100.529	-176.2028
3750.000000	100.568	-175.8694
3820.000000	100.643	-175.4551
3870.000000	100.714	-175.1942
3950.000000	100.877	-174.8621
4000.000000	101.016	-174.8184
4060.000000	101.213	-175.0914
4120.000000	101.422	-175.8205
4180.000000	101.622	-177.0979
4250.000000	101.792	-179.3938
4310.000000	101.817	178.0593
4370.000000	101.668	175.4702
4440.000000	101.252	173.6473
4500.000000	100.804	174.1477
4550.000000	100.534	176.0623
4620.000000	100.560	179.8053
4680.000000	100.976	-177.6379
4750.000000	101.670	-176.9520
4820.000000	102.310	-178.9448
4870.000000	102.649	178.4097
4940.000000	102.927	173.7504
5000.000000	102.989	169.4078
5080.000000	102.843	163.7823
5150.000000	102.543	159.4369
5220.000000	102.128	155.8227
5300.000000	101.561	152.6202
5380.000000	100.938	150.3472
5450.000000	100.369	149.0507
5520.000000	99.794	148.3626
5600.000000	99.151	148.2516
5700.000000	98.397	148.9247
5800.000000	97.715	150.2498
5900.000000	97.101	152.0665
6000.000000	96.554	154.3346
6080.000000	96.170	156.4200
6150.000000	95.875	158.3861
6220.000000	95.618	160.4425
6300.000000	95.366	162.8875
6400.000000	95.110	166.0951
6500.000000	94.926	169.4475
6600.000000	94.821	172.8722
6700.000000	94.792	176.3115
6800.000000	94.839	179.7537
6900.000000	94.971	-176.8329
7000.000000	95.197	-173.5297
7100.000000	95.516	-170.4168
7200.000000	95.937	-167.5424
7300.000000	96.472	-164.9814
7400.000000	97.137	-162.8858
7500.000000	97.936	-161.4678
7620.000000	99.067	-161.0555
7750.000000	100.438	-163.0344
7880.000000	101.766	-168.7930
8000.000000	102.700	-178.1825
8120.000000	103.128	169.1534
8250.000000	102.877	154.3043
8380.000000	101.910	141.6833
8500.000000	100.545	133.8503
8620.000000	98.941	129.7551
8750.000000	97.153	128.6016
8850.000000	95.844	129.3600
9000.000000	94.085	132.2690
9120.000000	92.881	135.5759
9250.000000	91.771	139.7680
9380.000000	90.839	144.3958
9500.000000	90.119	148.9197
9620.000000	89.518	153.5943
9750.000000	88.985	158.7888
9880.000000	88.566	164.0839
10000.000000	88.279	169.0144
10150.000000	88.048	175.2016
10300.000000	87.966	-178.6220
10440.000000	88.032	-172.9391
10600.000000	88.295	-166.6101
10750.000000	88.757	-160.9385
10900.000000	89.474	-155.7046
11060.000000	90.582	-150.9281
11200.000000	91.863	-147.9443
11380.000000	93.828	-147.0886
11500.000000	95.180	-149.5099
11720.000000	97.177	-162.9405
11800.000000	97.597	-170.7873
12060.000000	97.375	159.6536
12200.000000	96.266	146.8616
12410.000000	93.703	136.6434
12500.000000	92.419	135.2342
12650.000000	90.216	135.6827
12800.000000	88.089	138.4803
13150.000000	83.978	149.5914
13200.000000	83.502	151.4648
13400.000000	81.853	159.3167
13600.000000	80.545	167.5133
13800.000000	79.501	175.8865
14000.000000	78.667	-175.6221
14300.000000	77.754	-162.7425
14500.000000	77.359	-154.1340
14750.000000	77.110	-143.4638
15000.000000	77.153	-133.0313
15250.000000	77.539	-123.0592
15500.000000	78.334	-113.9554
15750.000000	79.570	-106.5044
16000.000000	81.149	-102.0339
16250.000000	82.817	-102.1907
16500.000000	84.236	-108.4387
16750.000000	84.975	-121.1147
17000.000000	84.680	-136.4566
17250.000000	83.353	-148.0744
17500.000000	81.305	-152.7590
17750.000000	78.935	-151.3873
18000.000000	76.603	-146.1660
18250.000000	74.560	-138.8955
18500.000000	72.928	-130.7342
18750.000000	71.711	-122.4417
19000.000000	70.843	-114.5874
19250.000000	70.216	-107.6183
19500.000000	69.695	-101.7685
19750.000000	69.128	-96.8169
20000.000000	68.377	-91.8715
