* Measurement data measured by REW V5.20.13
* Source: EXCL: Mic in at front panel (Pink) (Realtek(R) Audio), MICROPHONE (Master Volume), L, volume: 0.250
* Format: 256k Log Swept Sine, 1 sweep at -12.0 dBFS with no timing reference
* Dated: Oct 29, 2022 12:37:22 AM
* REW Settings:
*  C-weighting compensation: Off
*  Target level: 75.0 dB
* Note: BGVP Melody Hifi L
* Measurement: BGVP Melody Hifi L
* Smoothing: 1/12 octave
* Frequency Step: 1/48 octave
* Start Frequency: 20.000 Hz
*
* Freq(Hz)	SPL(dB)	Phase(degrees)
20.000000	99.931	-147.7792
20.299999	99.959	-148.3698
20.600000	99.985	-148.9488
20.900000	100.009	-149.5145
21.200001	100.032	-150.0657
21.400000	100.047	-150.4252
21.799999	100.076	-151.1264
22.000000	100.089	-151.4690
22.400000	100.116	-152.1408
22.700001	100.136	-152.6337
23.000000	100.154	-153.1178
23.299999	100.172	-153.5929
23.600000	100.189	-154.0589
24.000000	100.211	-154.6664
24.299999	100.226	-155.1123
24.700001	100.246	-155.6954
25.000000	100.260	-156.1249
25.400000	100.278	-156.6873
25.799999	100.294	-157.2372
26.200001	100.309	-157.7728
26.500000	100.319	-158.1649
26.900000	100.333	-158.6756
27.200001	100.343	-159.0511
27.600000	100.356	-159.5440
28.000000	100.369	-160.0299
28.500000	100.383	-160.6272
29.000000	100.396	-161.2107
29.500000	100.408	-161.7778
30.000000	100.419	-162.3287
30.400000	100.427	-162.7594
30.700001	100.434	-163.0779
31.100000	100.442	-163.4977
31.500000	100.450	-163.9127
32.000000	100.459	-164.4253
32.500000	100.467	-164.9306
33.000000	100.474	-165.4281
33.500000	100.481	-165.9181
34.000000	100.486	-166.4006
34.500000	100.490	-166.8743
35.000000	100.493	-167.3370
35.500000	100.495	-167.7875
36.000000	100.497	-168.2274
36.500000	100.498	-168.6588
37.000000	100.498	-169.0820
37.500000	100.497	-169.4949
38.200001	100.496	-170.0514
38.700001	100.494	-170.4360
39.500000	100.492	-171.0409
40.000000	100.490	-171.4146
40.599998	100.487	-171.8553
41.200001	100.482	-172.2869
41.799999	100.478	-172.7139
42.500000	100.471	-173.2097
43.099998	100.464	-173.6272
43.700001	100.456	-174.0334
44.400002	100.447	-174.4958
45.000000	100.439	-174.8860
45.500000	100.432	-175.2055
46.200001	100.422	-175.6410
46.799999	100.413	-176.0067
47.500000	100.401	-176.4265
48.200001	100.385	-176.8229
48.700001	100.373	-177.0783
49.400002	100.356	-177.3939
50.000000	100.346	-177.6402
50.799999	100.336	-177.9626
51.500000	100.330	-178.2515
52.200001	100.324	-178.5479
53.000000	100.317	-178.8940
53.799999	100.309	-179.2420
54.500000	100.303	-179.5440
55.200001	100.297	-179.8465
56.000000	100.294	179.7985
57.000000	100.291	179.3280
58.000000	100.286	178.8267
59.000000	100.277	178.3152
60.000000	100.263	177.8193
60.799999	100.249	177.4402
61.500000	100.236	177.1212
62.200001	100.222	176.8153
63.000000	100.206	176.4828
64.000000	100.185	176.0844
65.000000	100.163	175.6931
66.000000	100.139	175.3192
67.000000	100.113	174.9783
68.000000	100.090	174.6617
69.000000	100.072	174.3411
70.000000	100.055	173.9995
71.000000	100.038	173.6435
72.000000	100.021	173.2793
73.000000	100.006	172.9072
74.000000	99.990	172.5343
75.000000	99.973	172.1719
76.199997	99.952	171.7590
77.500000	99.928	171.3310
78.800003	99.903	170.9007
80.000000	99.878	170.4792
81.199997	99.852	170.0180
82.500000	99.818	169.4756
83.800003	99.779	168.9179
85.000000	99.735	168.4317
86.199997	99.684	168.0194
87.500000	99.629	167.6677
88.500000	99.588	167.4377
90.000000	99.526	167.1243
91.199997	99.475	166.9000
92.500000	99.422	166.6808
93.800003	99.374	166.4733
95.000000	99.331	166.2921
96.199997	99.291	166.1320
97.500000	99.253	165.9823
98.800003	99.223	165.8361
100.000000	99.199	165.6934
101.500000	99.170	165.5172
103.000000	99.141	165.3690
104.400002	99.117	165.2611
106.000000	99.099	165.1133
107.500000	99.085	164.8893
109.000000	99.065	164.5989
110.599998	99.030	164.2695
112.000000	98.987	163.9663
113.800003	98.911	163.4961
115.000000	98.852	163.0524
117.199997	98.719	161.9174
118.000000	98.662	161.4996
120.599998	98.523	160.8546
122.000000	98.522	160.9183
124.099998	98.569	161.0854
125.000000	98.581	161.1533
126.500000	98.578	161.2604
128.000000	98.558	161.3018
131.500000	98.481	160.8145
132.000000	98.466	160.7055
134.000000	98.400	160.3281
136.000000	98.334	160.0510
138.000000	98.263	159.7573
140.000000	98.182	159.4353
143.000000	98.065	159.1165
145.000000	98.010	159.0526
147.500000	97.955	158.9509
150.000000	97.885	158.6803
152.500000	97.794	158.3488
155.000000	97.710	158.1879
157.500000	97.664	158.2243
160.000000	97.642	158.2938
162.500000	97.619	158.3165
165.000000	97.587	158.2780
167.500000	97.547	158.1725
170.000000	97.500	158.0197
172.500000	97.450	157.8516
175.000000	97.399	157.6771
177.500000	97.348	157.4918
180.000000	97.298	157.2906
182.500000	97.249	157.0801
185.000000	97.199	156.8730
187.500000	97.144	156.6691
190.000000	97.083	156.4603
192.500000	97.018	156.2596
195.000000	96.955	156.1014
197.500000	96.894	155.9985
200.000000	96.837	155.9308
203.000000	96.768	155.8644
206.000000	96.702	155.7878
209.000000	96.636	155.6861
212.000000	96.566	155.5718
214.000000	96.518	155.5043
218.000000	96.418	155.4282
220.000000	96.369	155.4208
224.000000	96.280	155.4253
227.000000	96.218	155.4198
230.000000	96.157	155.4054
233.000000	96.097	155.3875
236.000000	96.036	155.3661
240.000000	95.954	155.3302
243.000000	95.890	155.3061
247.000000	95.800	155.3038
250.000000	95.732	155.3406
254.000000	95.644	155.4463
258.000000	95.569	155.5772
262.000000	95.502	155.6705
265.000000	95.451	155.7119
269.000000	95.377	155.7670
272.000000	95.320	155.8299
276.000000	95.246	155.9472
280.000000	95.179	156.0887
285.000000	95.106	156.2602
290.000000	95.041	156.3583
295.000000	94.971	156.3738
300.000000	94.887	156.3943
304.000000	94.816	156.4501
307.000000	94.763	156.5098
311.000000	94.693	156.5992
315.000000	94.623	156.6938
320.000000	94.534	156.8354
325.000000	94.446	157.0232
330.000000	94.365	157.2428
335.000000	94.289	157.4640
340.000000	94.215	157.6703
345.000000	94.142	157.8704
350.000000	94.067	158.0819
355.000000	93.993	158.3091
360.000000	93.920	158.5471
365.000000	93.849	158.7921
370.000000	93.780	159.0433
375.000000	93.711	159.3014
382.000000	93.619	159.6760
387.000000	93.554	159.9522
395.000000	93.454	160.4064
400.000000	93.394	160.6947
406.000000	93.324	161.0385
412.000000	93.255	161.3788
418.000000	93.185	161.7314
425.000000	93.104	162.1802
431.000000	93.041	162.5895
437.000000	92.984	162.9964
444.000000	92.925	163.4503
450.000000	92.879	163.8060
455.000000	92.840	164.0624
462.000000	92.780	164.3737
468.000000	92.720	164.6491
475.000000	92.645	165.0204
482.000000	92.573	165.4259
487.000000	92.521	165.7220
494.000000	92.448	166.1603
500.000000	92.388	166.5712
508.000000	92.314	167.1378
515.000000	92.254	167.6202
522.000000	92.193	168.0988
530.000000	92.123	168.6702
538.000000	92.056	169.2692
545.000000	92.002	169.8007
552.000000	91.951	170.3347
560.000000	91.895	170.9382
570.000000	91.827	171.6761
580.000000	91.758	172.4242
590.000000	91.689	173.1984
600.000000	91.624	174.0093
608.000000	91.575	174.6740
615.000000	91.535	175.2575
622.000000	91.494	175.8529
630.000000	91.449	176.5675
640.000000	91.401	177.5046
650.000000	91.365	178.4590
660.000000	91.343	179.3996
670.000000	91.331	-179.7337
680.000000	91.317	-178.9465
690.000000	91.296	-178.1799
700.000000	91.271	-177.3863
710.000000	91.247	-176.5546
720.000000	91.227	-175.7026
730.000000	91.210	-174.8393
740.000000	91.196	-173.9598
750.000000	91.185	-173.0604
762.000000	91.178	-171.9549
775.000000	91.181	-170.7332
788.000000	91.195	-169.4978
800.000000	91.218	-168.3412
812.000000	91.256	-167.1786
825.000000	91.318	-165.9807
838.000000	91.391	-164.9158
850.000000	91.456	-164.0291
862.000000	91.516	-163.1803
875.000000	91.579	-162.2712
885.000000	91.630	-161.5770
900.000000	91.709	-160.5614
912.000000	91.774	-159.7677
925.000000	91.848	-158.9263
938.000000	91.927	-158.1200
950.000000	92.000	-157.4156
962.000000	92.073	-156.7402
975.000000	92.150	-156.0246
988.000000	92.226	-155.3164
1000.000000	92.296	-154.6605
1015.000000	92.388	-153.8198
1030.000000	92.492	-152.9745
1044.000000	92.600	-152.2418
1060.000000	92.728	-151.5279
1075.000000	92.841	-150.9489
1090.000000	92.948	-150.4034
1106.000000	93.057	-149.8378
1120.000000	93.151	-149.3543
1138.000000	93.269	-148.7451
1150.000000	93.348	-148.3455
1172.000000	93.493	-147.6196
1180.000000	93.547	-147.3558
1206.000000	93.733	-146.5577
1220.000000	93.836	-146.2148
1241.000000	93.977	-145.7959
1250.000000	94.032	-145.6284
1265.000000	94.119	-145.3441
1280.000000	94.201	-145.0458
1315.000000	94.388	-144.2968
1320.000000	94.414	-144.1884
1340.000000	94.518	-143.7588
1360.000000	94.616	-143.3172
1380.000000	94.712	-142.8291
1400.000000	94.811	-142.2716
1430.000000	94.986	-141.4078
1450.000000	95.111	-140.9095
1475.000000	95.265	-140.3601
1500.000000	95.413	-139.8332
1525.000000	95.557	-139.2855
1550.000000	95.705	-138.6905
1575.000000	95.867	-138.0648
1600.000000	96.045	-137.5026
1625.000000	96.227	-137.0578
1650.000000	96.402	-136.6862
1675.000000	96.573	-136.3374
1700.000000	96.742	-135.9983
1725.000000	96.910	-135.6762
1750.000000	97.076	-135.3525
1775.000000	97.244	-134.9897
1800.000000	97.424	-134.5972
1825.000000	97.618	-134.2487
1850.000000	97.819	-133.9888
1875.000000	98.020	-133.8064
1900.000000	98.219	-133.6699
1925.000000	98.418	-133.5481
1950.000000	98.625	-133.4353
1975.000000	98.842	-133.3750
2000.000000	99.066	-133.4219
2030.000000	99.333	-133.6319
2060.000000	99.591	-133.9748
2090.000000	99.839	-134.4230
2120.000000	100.075	-134.9569
2140.000000	100.225	-135.3376
2180.000000	100.514	-136.1052
2200.000000	100.659	-136.5069
2240.000000	100.943	-137.4078
2270.000000	101.145	-138.1570
2300.000000	101.336	-138.9196
2330.000000	101.525	-139.6637
2360.000000	101.721	-140.4208
2400.000000	101.988	-141.5646
2430.000000	102.184	-142.5571
2470.000000	102.429	-144.0366
2500.000000	102.599	-145.2393
2540.000000	102.805	-146.9154
2580.000000	102.997	-148.6543
2620.000000	103.177	-150.5347
2650.000000	103.294	-152.0709
2690.000000	103.414	-154.2353
2720.000000	103.476	-155.8782
2760.000000	103.527	-158.0454
2800.000000	103.546	-160.1886
2850.000000	103.521	-162.8209
2900.000000	103.433	-165.3177
2950.000000	103.287	-167.5017
3000.000000	103.107	-169.2725
3040.000000	102.951	-170.4064
3070.000000	102.832	-171.0930
3110.000000	102.676	-171.7874
3150.000000	102.536	-172.2712
3200.000000	102.392	-172.7037
3250.000000	102.276	-173.0673
3300.000000	102.177	-173.4207
3350.000000	102.084	-173.7488
3400.000000	101.995	-174.0462
3450.000000	101.901	-174.2921
3500.000000	101.802	-174.3989
3550.000000	101.712	-174.3154
3600.000000	101.644	-174.0849
3650.000000	101.601	-173.7816
3700.000000	101.582	-173.4445
3750.000000	101.585	-173.0779
3820.000000	101.633	-172.5764
3870.000000	101.696	-172.2657
3950.000000	101.854	-171.9048
4000.000000	101.994	-171.8800
4060.000000	102.188	-172.2242
4120.000000	102.386	-173.0969
4180.000000	102.548	-174.5881
4250.000000	102.604	-177.0114
4310.000000	102.454	-178.9565
4370.000000	102.136	-179.4679
4440.000000	101.846	-177.2575
4500.000000	101.987	-174.1991
4550.000000	102.381	-172.3600
4620.000000	103.081	-172.0517
4680.000000	103.629	-173.7169
4750.000000	104.124	-177.1302
4820.000000	104.456	178.5148
4870.000000	104.592	175.0608
4940.000000	104.644	170.0029
5000.000000	104.561	165.6682
5080.000000	104.278	160.2402
5150.000000	103.894	156.1045
5220.000000	103.418	152.6761
5300.000000	102.804	149.6328
5380.000000	102.146	147.4615
5450.000000	101.555	146.2161
5520.000000	100.962	145.5540
5600.000000	100.301	145.4523
5700.000000	99.530	146.1158
5800.000000	98.836	147.4122
5900.000000	98.215	149.1833
6000.000000	97.662	151.3909
6080.000000	97.277	153.4193
6150.000000	96.983	155.3294
6220.000000	96.729	157.3225
6300.000000	96.482	159.6846
6400.000000	96.235	162.7703
6500.000000	96.065	165.9781
6600.000000	95.977	169.2319
6700.000000	95.969	172.4720
6800.000000	96.041	175.6870
6900.000000	96.204	178.8435
7000.000000	96.468	-178.1471
7100.000000	96.839	-175.3803
7200.000000	97.327	-172.9359
7300.000000	97.949	-170.9476
7400.000000	98.716	-169.6622
7500.000000	99.615	-169.4270
7620.000000	100.812	-171.1506
7750.000000	102.098	-176.5220
7880.000000	103.093	173.5505
8000.000000	103.496	160.8572
8120.000000	103.261	147.0152
8250.000000	102.306	133.9650
8380.000000	100.801	125.0866
8500.000000	99.143	120.8039
8620.000000	97.423	119.5041
8750.000000	95.649	120.3980
8850.000000	94.401	122.1819
9000.000000	92.750	126.0408
9120.000000	91.615	129.7962
9250.000000	90.548	134.3024
9380.000000	89.626	139.1516
9500.000000	88.890	143.8432
9620.000000	88.251	148.6730
9750.000000	87.657	154.0332
9880.000000	87.158	159.4985
10000.000000	86.778	164.5976
10150.000000	86.403	171.0273
10300.000000	86.138	177.5070
10440.000000	85.993	-176.4412
10600.000000	85.947	-169.5400
10750.000000	86.031	-163.1118
10900.000000	86.249	-156.7774
11060.000000	86.652	-150.1706
11200.000000	87.180	-144.5954
11380.000000	88.158	-137.9031
11500.000000	89.037	-133.9145
11720.000000	91.155	-128.4540
11800.000000	92.060	-127.4399
12060.000000	95.083	-130.6737
12200.000000	96.423	-138.3200
12410.000000	97.498	-157.7820
12500.000000	97.515	-167.6601
12650.000000	96.934	176.9500
12800.000000	95.701	165.5615
13150.000000	91.472	157.1622
13200.000000	90.827	157.5085
13400.000000	88.384	161.0776
13600.000000	86.319	166.8217
13800.000000	84.703	173.6552
14000.000000	83.493	-178.9691
14300.000000	82.298	-167.4830
14500.000000	81.854	-159.7933
14750.000000	81.680	-150.4208
15000.000000	81.964	-141.6738
15250.000000	82.765	-134.2018
15500.000000	84.071	-129.2434
15750.000000	85.642	-128.8936
16000.000000	87.026	-135.4344
16250.000000	87.753	-149.1035
16500.000000	87.488	-166.2453
16750.000000	86.129	179.6633
17000.000000	83.904	172.9471
17250.000000	81.201	173.2905
17500.000000	78.404	178.3249
17750.000000	75.817	-174.0576
18000.000000	73.613	-165.1590
18250.000000	71.840	-155.6836
18500.000000	70.457	-146.0574
18750.000000	69.402	-136.6150
19000.000000	68.608	-127.6582
19250.000000	68.004	-119.4623
19500.000000	67.500	-112.2129
19750.000000	66.986	-105.8587
20000.000000	66.358	-99.9618
