* Measurement data measured by REW V5.20
* Source: Mic in at front panel (Pink) (Realtek(R) Audio), no input selected, L, volume: 0.250
* Format: 256k Log Swept Sine, 1 sweep at -12.0 dBFS with no timing reference
* Dated: Sep 4, 2021 4:18:17 PM
* REW Settings:
*  C-weighting compensation: Off
*  Target level: 75.0 dB
* Note: BLON BLA8
* Measurement: Sep 4
* Smoothing: 1/12 octave
* Frequency Step: 1/48 octave
* Start Frequency: 20.000 Hz
*
* Freq(Hz)	SPL(dB)	Phase(degrees)
20.000000	97.4	61.3792
20.299999	97.5	60.6142
20.600000	97.6	59.8644
20.900000	97.6	59.1302
21.200001	97.7	58.4124
21.400000	97.7	57.9441
21.799999	97.8	57.0340
22.000000	97.9	56.5929
22.400000	97.9	55.7378
22.700001	98.0	55.1158
23.000000	98.0	54.5036
23.299999	98.1	53.8944
23.600000	98.2	53.2845
24.000000	98.2	52.4691
24.299999	98.3	51.8598
24.700001	98.3	51.0576
25.000000	98.4	50.4670
25.400000	98.5	49.6927
25.799999	98.5	48.9256
26.200001	98.6	48.1581
26.500000	98.6	47.5836
26.900000	98.7	46.8278
27.200001	98.7	46.2779
27.600000	98.7	45.5766
28.000000	98.8	44.9122
28.500000	98.8	44.1150
29.000000	98.9	43.3252
29.500000	98.9	42.5320
30.000000	99.0	41.7513
30.400000	99.0	41.1502
30.700001	99.1	40.7142
31.100000	99.1	40.1430
31.500000	99.1	39.5674
32.000000	99.2	38.8202
32.500000	99.3	38.0409
33.000000	99.3	37.2564
33.500000	99.3	36.4991
34.000000	99.4	35.7854
34.500000	99.4	35.1094
35.000000	99.4	34.4558
35.500000	99.5	33.8116
36.000000	99.5	33.1704
36.500000	99.5	32.5289
37.000000	99.5	31.8853
37.500000	99.6	31.2429
38.200001	99.6	30.3660
38.700001	99.6	29.7693
39.500000	99.7	28.8647
40.000000	99.7	28.3184
40.599998	99.7	27.6765
41.200001	99.7	27.0542
41.799999	99.7	26.4476
42.500000	99.7	25.7350
43.099998	99.8	25.1022
43.700001	99.8	24.4595
44.400002	99.8	23.7278
45.000000	99.8	23.1298
45.500000	99.8	22.6483
46.200001	99.8	21.9916
46.799999	99.8	21.4440
47.500000	99.8	20.8251
48.200001	99.8	20.2263
48.700001	99.8	19.8110
49.400002	99.8	19.2495
50.000000	99.8	18.7877
50.799999	99.8	18.1965
51.500000	99.9	17.6965
52.200001	99.9	17.2031
53.000000	99.9	16.6392
53.799999	99.9	16.0865
54.500000	99.9	15.6237
55.200001	99.9	15.1678
56.000000	99.9	14.6311
57.000000	99.9	13.9422
58.000000	99.9	13.2830
59.000000	99.9	12.6807
60.000000	99.9	12.1097
60.799999	99.9	11.6434
61.500000	99.9	11.2212
62.200001	99.9	10.7891
63.000000	99.9	10.2858
64.000000	99.9	9.6411
65.000000	100.0	8.9811
66.000000	100.0	8.3162
67.000000	100.0	7.6620
68.000000	99.9	7.0261
69.000000	99.9	6.4087
70.000000	99.9	5.8110
71.000000	99.9	5.2329
72.000000	99.9	4.6648
73.000000	99.9	4.0983
74.000000	99.9	3.5430
75.000000	99.8	3.0155
76.199997	99.8	2.4163
77.500000	99.8	1.7866
78.800003	99.8	1.1600
80.000000	99.7	0.5764
81.199997	99.7	-0.0143
82.500000	99.7	-0.6535
83.800003	99.6	-1.2692
85.000000	99.6	-1.7919
86.199997	99.5	-2.2549
87.500000	99.5	-2.6909
88.500000	99.5	-2.9928
90.000000	99.4	-3.4243
91.199997	99.4	-3.7747
92.500000	99.4	-4.1745
93.800003	99.4	-4.5977
95.000000	99.3	-5.0006
96.199997	99.3	-5.4048
97.500000	99.3	-5.8341
98.800003	99.2	-6.2451
100.000000	99.2	-6.5979
101.500000	99.1	-6.9909
103.000000	99.1	-7.3250
104.400002	99.0	-7.5892
106.000000	99.0	-7.8492
107.500000	99.0	-8.0706
109.000000	98.9	-8.2964
110.599998	98.9	-8.5756
112.000000	98.9	-8.8622
113.800003	98.9	-9.2482
115.000000	98.9	-9.4765
117.199997	98.9	-9.7793
118.000000	98.9	-9.8688
120.599998	98.8	-10.3343
122.000000	98.8	-10.7491
124.099998	98.8	-11.4562
125.000000	98.8	-11.7594
126.500000	98.7	-12.2460
128.000000	98.7	-12.7004
131.500000	98.6	-13.6428
132.000000	98.6	-13.7648
134.000000	98.6	-14.2256
136.000000	98.5	-14.6688
138.000000	98.4	-15.1203
140.000000	98.4	-15.5608
143.000000	98.3	-16.1589
145.000000	98.2	-16.5283
147.500000	98.1	-16.9777
150.000000	98.1	-17.3866
152.500000	98.0	-17.7240
155.000000	97.9	-17.9796
157.500000	97.8	-18.2040
160.000000	97.8	-18.4722
162.500000	97.7	-18.7859
165.000000	97.6	-19.1109
167.500000	97.6	-19.4211
170.000000	97.5	-19.6973
172.500000	97.4	-19.9351
175.000000	97.4	-20.1498
177.500000	97.3	-20.3602
180.000000	97.2	-20.5748
182.500000	97.2	-20.7937
185.000000	97.1	-21.0162
187.500000	97.0	-21.2388
190.000000	97.0	-21.4532
192.500000	96.9	-21.6513
195.000000	96.8	-21.8284
197.500000	96.8	-21.9828
200.000000	96.7	-22.1140
203.000000	96.6	-22.2469
206.000000	96.6	-22.3752
209.000000	96.5	-22.5222
212.000000	96.4	-22.6830
214.000000	96.4	-22.7824
218.000000	96.3	-22.9181
220.000000	96.2	-22.9516
224.000000	96.1	-22.9958
227.000000	96.1	-23.0414
230.000000	96.0	-23.1003
233.000000	95.9	-23.1635
236.000000	95.9	-23.2275
240.000000	95.8	-23.3151
243.000000	95.7	-23.3765
247.000000	95.6	-23.4295
250.000000	95.5	-23.4300
254.000000	95.4	-23.3705
258.000000	95.4	-23.2837
262.000000	95.3	-23.2394
265.000000	95.2	-23.2380
269.000000	95.2	-23.2340
272.000000	95.1	-23.2056
276.000000	95.0	-23.1310
280.000000	95.0	-23.0313
285.000000	94.9	-22.9096
290.000000	94.8	-22.8574
295.000000	94.7	-22.8886
300.000000	94.7	-22.9165
304.000000	94.6	-22.8973
307.000000	94.5	-22.8625
311.000000	94.5	-22.8035
315.000000	94.4	-22.7369
320.000000	94.3	-22.6272
325.000000	94.2	-22.4697
330.000000	94.1	-22.2819
335.000000	94.0	-22.0934
340.000000	93.9	-21.9191
345.000000	93.9	-21.7499
350.000000	93.8	-21.5688
355.000000	93.7	-21.3715
360.000000	93.6	-21.1619
365.000000	93.6	-20.9440
370.000000	93.5	-20.7181
375.000000	93.4	-20.4835
382.000000	93.3	-20.1406
387.000000	93.2	-19.8871
395.000000	93.1	-19.4681
400.000000	93.1	-19.1998
406.000000	93.0	-18.8785
412.000000	92.9	-18.5602
418.000000	92.8	-18.2290
425.000000	92.7	-17.8039
431.000000	92.7	-17.4147
437.000000	92.6	-17.0276
444.000000	92.5	-16.5953
450.000000	92.5	-16.2570
455.000000	92.5	-16.0143
462.000000	92.4	-15.7211
468.000000	92.3	-15.4605
475.000000	92.2	-15.1060
482.000000	92.2	-14.7167
487.000000	92.1	-14.4316
494.000000	92.0	-14.0084
500.000000	92.0	-13.6100
508.000000	91.9	-13.0608
515.000000	91.8	-12.5938
522.000000	91.8	-12.1299
530.000000	91.7	-11.5750
538.000000	91.6	-10.9922
545.000000	91.6	-10.4752
552.000000	91.5	-9.9559
560.000000	91.4	-9.3694
570.000000	91.4	-8.6564
580.000000	91.3	-7.9381
590.000000	91.2	-7.1971
600.000000	91.2	-6.4244
608.000000	91.1	-5.7946
615.000000	91.1	-5.2446
622.000000	91.0	-4.6855
630.000000	91.0	-4.0164
640.000000	90.9	-3.1420
650.000000	90.9	-2.2556
660.000000	90.9	-1.3867
670.000000	90.9	-0.5938
680.000000	90.8	0.1201
690.000000	90.8	0.8146
700.000000	90.8	1.5356
710.000000	90.7	2.2921
720.000000	90.7	3.0638
730.000000	90.7	3.8405
740.000000	90.7	4.6289
750.000000	90.6	5.4363
762.000000	90.6	6.4310
775.000000	90.6	7.5264
788.000000	90.6	8.6248
800.000000	90.6	9.6496
812.000000	90.6	10.6837
825.000000	90.6	11.7562
838.000000	90.6	12.7198
850.000000	90.7	13.5408
862.000000	90.7	14.3536
875.000000	90.7	15.2560
885.000000	90.7	15.9656
900.000000	90.7	17.0336
912.000000	90.8	17.8907
925.000000	90.8	18.8181
938.000000	90.8	19.7250
950.000000	90.9	20.5328
962.000000	90.9	21.3192
975.000000	90.9	22.1630
988.000000	91.0	23.0093
1000.000000	91.0	23.8041
1015.000000	91.1	24.8396
1030.000000	91.1	25.9124
1044.000000	91.2	26.8977
1060.000000	91.3	27.9569
1075.000000	91.4	28.9091
1090.000000	91.5	29.8461
1106.000000	91.6	30.7979
1120.000000	91.7	31.5608
1138.000000	91.8	32.4681
1150.000000	91.9	33.0732
1172.000000	92.0	34.2492
1180.000000	92.1	34.6683
1206.000000	92.3	35.7240
1220.000000	92.4	36.1046
1241.000000	92.6	36.6473
1250.000000	92.6	36.9124
1265.000000	92.7	37.4136
1280.000000	92.8	37.9823
1315.000000	92.9	39.5095
1320.000000	93.0	39.7420
1340.000000	93.1	40.6909
1360.000000	93.2	41.6797
1380.000000	93.4	42.7413
1400.000000	93.6	43.8917
1430.000000	93.9	45.6088
1450.000000	94.2	46.5927
1475.000000	94.5	47.5961
1500.000000	94.9	48.3554
1525.000000	95.2	48.8725
1550.000000	95.6	49.1601
1575.000000	95.9	49.2190
1600.000000	96.2	49.0005
1625.000000	96.4	48.5183
1650.000000	96.7	47.8989
1675.000000	96.8	47.2767
1700.000000	97.0	46.7350
1725.000000	97.1	46.3006
1750.000000	97.3	45.9796
1775.000000	97.4	45.7662
1800.000000	97.6	45.6135
1825.000000	97.7	45.4369
1850.000000	97.9	45.1820
1875.000000	98.1	44.8130
1900.000000	98.4	44.2802
1925.000000	98.6	43.5504
1950.000000	98.8	42.6286
1975.000000	99.0	41.5302
2000.000000	99.2	40.2831
2030.000000	99.4	38.6842
2060.000000	99.6	37.1062
2090.000000	99.7	35.6557
2120.000000	99.7	34.4018
2140.000000	99.8	33.7011
2180.000000	99.9	32.6007
2200.000000	100.0	32.1190
2240.000000	100.1	31.0208
2270.000000	100.3	29.9606
2300.000000	100.4	28.7051
2330.000000	100.5	27.3286
2360.000000	100.6	25.8759
2400.000000	100.7	23.8271
2430.000000	100.7	22.2377
2470.000000	100.7	20.1391
2500.000000	100.6	18.6429
2540.000000	100.5	16.8362
2580.000000	100.4	15.2669
2620.000000	100.3	13.8461
2650.000000	100.2	12.8380
2690.000000	100.1	11.5930
2720.000000	100.0	10.7625
2760.000000	99.8	9.7810
2800.000000	99.7	8.8964
2850.000000	99.5	7.9064
2900.000000	99.2	7.0851
2950.000000	99.0	6.5359
3000.000000	98.8	6.2947
3040.000000	98.6	6.2898
3070.000000	98.4	6.3943
3110.000000	98.2	6.6831
3150.000000	98.1	7.1033
3200.000000	97.9	7.6967
3250.000000	97.8	8.2657
3300.000000	97.7	8.7921
3350.000000	97.6	9.3300
3400.000000	97.5	9.8975
3450.000000	97.4	10.4944
3500.000000	97.3	11.1757
3550.000000	97.2	11.9806
3600.000000	97.1	12.8888
3650.000000	97.0	13.8706
3700.000000	97.0	14.9255
3750.000000	96.9	16.0665
3820.000000	96.9	17.7510
3870.000000	96.9	18.9857
3950.000000	96.9	21.0292
4000.000000	97.0	22.3010
4060.000000	97.0	23.7532
4120.000000	97.1	25.1297
4180.000000	97.2	26.4650
4250.000000	97.4	27.9939
4310.000000	97.5	29.3212
4370.000000	97.7	30.6522
4440.000000	97.9	32.1049
4500.000000	98.1	33.2008
4550.000000	98.3	34.0039
4620.000000	98.6	34.9655
4680.000000	98.9	35.6669
4750.000000	99.3	36.3580
4820.000000	99.7	36.8316
4870.000000	100.0	36.9709
4940.000000	100.4	36.8302
5000.000000	100.8	36.3674
5080.000000	101.3	35.2633
5150.000000	101.8	33.8663
5220.000000	102.2	32.0188
5300.000000	102.7	29.2192
5380.000000	103.2	25.5754
5450.000000	103.4	21.7354
5520.000000	103.6	17.4805
5600.000000	103.7	12.4205
5700.000000	103.5	6.2714
5800.000000	103.2	0.7766
5900.000000	102.6	-3.7194
6000.000000	102.0	-7.0219
6080.000000	101.5	-8.8254
6150.000000	101.1	-9.8701
6220.000000	100.7	-10.4929
6300.000000	100.2	-10.7531
6400.000000	99.7	-10.4767
6500.000000	99.2	-9.6547
6600.000000	98.8	-8.4528
6700.000000	98.5	-7.0032
6800.000000	98.3	-5.3743
6900.000000	98.2	-3.6429
7000.000000	98.2	-1.9311
7100.000000	98.2	-0.3605
7200.000000	98.4	0.9733
7300.000000	98.7	1.9415
7400.000000	99.1	2.3386
7500.000000	99.6	1.9138
7620.000000	100.2	-0.0529
7750.000000	100.9	-4.5338
7880.000000	101.5	-11.9384
8000.000000	101.7	-21.1229
8120.000000	101.6	-31.4595
8250.000000	100.9	-42.1974
8380.000000	99.8	-50.8663
8500.000000	98.4	-56.3578
8620.000000	97.0	-59.5214
8750.000000	95.4	-60.8193
8850.000000	94.2	-60.6463
9000.000000	92.6	-58.9608
9120.000000	91.3	-56.7280
9250.000000	90.1	-53.6817
9380.000000	89.0	-50.1226
9500.000000	88.1	-46.4883
9620.000000	87.3	-42.5997
9750.000000	86.5	-38.1440
9880.000000	85.8	-33.4854
10000.000000	85.2	-29.0636
10150.000000	84.6	-23.4092
10300.000000	84.0	-17.6321
10440.000000	83.6	-12.1585
10600.000000	83.2	-5.7917
10750.000000	82.9	0.3070
10900.000000	82.6	6.5459
11060.000000	82.5	13.4171
11200.000000	82.4	19.6554
11380.000000	82.5	28.0099
11500.000000	82.7	33.7520
11720.000000	83.5	44.2479
11800.000000	83.9	47.9033
12060.000000	85.7	58.3577
12200.000000	87.0	62.6653
12410.000000	89.1	66.7009
12500.000000	90.1	67.2891
12650.000000	91.8	66.2957
12800.000000	93.3	62.2404
13150.000000	95.7	38.6684
13200.000000	95.9	34.0139
13400.000000	95.7	15.1846
13600.000000	94.6	0.1180
13800.000000	93.0	-8.5291
14000.000000	91.1	-11.4840
14300.000000	88.5	-9.5229
14500.000000	87.4	-6.3179
14750.000000	86.7	-2.2022
15000.000000	86.9	0.0583
15250.000000	87.8	-2.2339
15500.000000	88.6	-11.9091
15750.000000	88.9	-29.0177
16000.000000	88.0	-48.0298
16250.000000	86.0	-61.6337
16500.000000	83.2	-67.1167
16750.000000	80.0	-66.1290
17000.000000	76.8	-61.2028
17250.000000	73.8	-54.1107
17500.000000	71.2	-45.8337
17750.000000	68.9	-36.8917
18000.000000	67.0	-27.5764
18250.000000	65.5	-18.0711
18500.000000	64.1	-8.5092
18750.000000	63.0	0.9875
19000.000000	62.0	10.2579
19250.000000	61.2	19.0261
19500.000000	60.5	26.7969
19750.000000	60.1	32.8065
