* Measurement data measured by REW V5.20
* Source: Mic in at front panel (Pink) (Realtek(R) Audio), no input selected, L, volume: 0.250
* Format: 256k Log Swept Sine, 1 sweep at -12.0 dBFS with no timing reference
* Dated: Sep 4, 2021 4:28:45 PM
* REW Settings:
*  C-weighting compensation: Off
*  Target level: 75.0 dB
* Note: BLO5S
* Measurement: Sep 4
* Smoothing: 1/12 octave
* Frequency Step: 1/48 octave
* Start Frequency: 20.000 Hz
*
* Freq(Hz)	SPL(dB)	Phase(degrees)
20.000000	99.0	36.9458
20.299999	99.0	36.2669
20.600000	99.0	35.6199
20.900000	99.0	34.9955
21.200001	99.0	34.3804
21.400000	99.0	33.9693
21.799999	99.1	33.1420
22.000000	99.1	32.7264
22.400000	99.1	31.9000
22.700001	99.1	31.2938
23.000000	99.1	30.7057
23.299999	99.2	30.1361
23.600000	99.2	29.5812
24.000000	99.2	28.8568
24.299999	99.2	28.3204
24.700001	99.2	27.6155
25.000000	99.2	27.1000
25.400000	99.2	26.4389
25.799999	99.2	25.8118
26.200001	99.3	25.2123
26.500000	99.3	24.7723
26.900000	99.3	24.1892
27.200001	99.3	23.7518
27.600000	99.3	23.1715
28.000000	99.3	22.6030
28.500000	99.3	21.9194
29.000000	99.3	21.2663
29.500000	99.3	20.6345
30.000000	99.3	20.0159
30.400000	99.3	19.5287
30.700001	99.3	19.1675
31.100000	99.3	18.6902
31.500000	99.3	18.2161
32.000000	99.3	17.6257
32.500000	99.3	17.0377
33.000000	99.3	16.4560
33.500000	99.3	15.8859
34.000000	99.3	15.3326
34.500000	99.3	14.7985
35.000000	99.3	14.2791
35.500000	99.3	13.7666
36.000000	99.3	13.2560
36.500000	99.3	12.7507
37.000000	99.3	12.2598
37.500000	99.3	11.7887
38.200001	99.3	11.1545
38.700001	99.3	10.7069
39.500000	99.3	9.9856
40.000000	99.3	9.5385
40.599998	99.3	9.0176
41.200001	99.2	8.5179
41.799999	99.2	8.0336
42.500000	99.2	7.4767
43.099998	99.2	7.0049
43.700001	99.2	6.5435
44.400002	99.2	6.0240
45.000000	99.2	5.5940
45.500000	99.1	5.2430
46.200001	99.1	4.7605
46.799999	99.1	4.3553
47.500000	99.1	3.8931
48.200001	99.1	3.4406
48.700001	99.0	3.1220
49.400002	99.0	2.6827
50.000000	99.0	2.3137
50.799999	99.0	1.8380
51.500000	99.0	1.4482
52.200001	98.9	1.0879
53.000000	98.9	0.6940
53.799999	98.9	0.2894
54.500000	98.9	-0.0808
55.200001	98.9	-0.4575
56.000000	98.8	-0.8842
57.000000	98.8	-1.3993
58.000000	98.8	-1.8903
59.000000	98.7	-2.3678
60.000000	98.7	-2.8514
60.799999	98.7	-3.2428
61.500000	98.6	-3.5673
62.200001	98.6	-3.8500
63.000000	98.5	-4.1060
64.000000	98.5	-4.3298
65.000000	98.4	-4.4711
66.000000	98.4	-4.5668
67.000000	98.4	-4.6619
68.000000	98.4	-4.8013
69.000000	98.4	-5.0193
70.000000	98.4	-5.3196
71.000000	98.4	-5.6768
72.000000	98.4	-6.0571
73.000000	98.4	-6.4413
74.000000	98.4	-6.8472
75.000000	98.4	-7.2886
76.199997	98.4	-7.8207
77.500000	98.4	-8.3631
78.800003	98.3	-8.8846
80.000000	98.3	-9.3621
81.199997	98.3	-9.8504
82.500000	98.2	-10.3901
83.800003	98.2	-10.9131
85.000000	98.1	-11.3609
86.199997	98.1	-11.7689
87.500000	98.0	-12.1647
88.500000	98.0	-12.4415
90.000000	97.9	-12.8265
91.199997	97.9	-13.1238
92.500000	97.9	-13.4498
93.800003	97.8	-13.7773
95.000000	97.8	-14.0717
96.199997	97.7	-14.3530
97.500000	97.7	-14.6425
98.800003	97.7	-14.9196
100.000000	97.6	-15.1676
101.500000	97.6	-15.4672
103.000000	97.5	-15.7516
104.400002	97.5	-16.0066
106.000000	97.4	-16.2960
107.500000	97.4	-16.5744
109.000000	97.3	-16.8682
110.599998	97.3	-17.1986
112.000000	97.2	-17.4862
113.800003	97.2	-17.8107
115.000000	97.1	-17.9683
117.199997	97.0	-18.1006
118.000000	97.0	-18.1136
120.599998	96.9	-18.2209
122.000000	96.9	-18.3640
124.099998	96.8	-18.6301
125.000000	96.8	-18.7512
126.500000	96.7	-18.9528
128.000000	96.7	-19.1466
131.500000	96.6	-19.5762
132.000000	96.6	-19.6384
134.000000	96.5	-19.8898
136.000000	96.4	-20.1277
138.000000	96.4	-20.3356
140.000000	96.3	-20.5205
143.000000	96.2	-20.7788
145.000000	96.2	-20.9443
147.500000	96.1	-21.1394
150.000000	96.0	-21.3124
152.500000	95.9	-21.4370
155.000000	95.8	-21.5071
157.500000	95.8	-21.5618
160.000000	95.7	-21.6406
162.500000	95.6	-21.7533
165.000000	95.6	-21.8842
167.500000	95.5	-22.0049
170.000000	95.4	-22.0893
172.500000	95.3	-22.1301
175.000000	95.3	-22.1443
177.500000	95.2	-22.1558
180.000000	95.1	-22.1759
182.500000	95.1	-22.2046
185.000000	95.0	-22.2389
187.500000	94.9	-22.2779
190.000000	94.9	-22.3187
192.500000	94.8	-22.3534
195.000000	94.8	-22.3718
197.500000	94.7	-22.3662
200.000000	94.6	-22.3349
203.000000	94.6	-22.2729
206.000000	94.5	-22.2110
209.000000	94.4	-22.1727
212.000000	94.4	-22.1510
214.000000	94.3	-22.1305
218.000000	94.2	-22.0338
220.000000	94.2	-21.9553
224.000000	94.1	-21.7784
227.000000	94.0	-21.6589
230.000000	94.0	-21.5549
233.000000	93.9	-21.4595
236.000000	93.8	-21.3683
240.000000	93.8	-21.2518
243.000000	93.7	-21.1623
247.000000	93.6	-21.0183
250.000000	93.5	-20.8743
254.000000	93.5	-20.6243
258.000000	93.4	-20.3500
262.000000	93.3	-20.1224
265.000000	93.3	-19.9868
269.000000	93.2	-19.8076
272.000000	93.2	-19.6495
276.000000	93.1	-19.4022
280.000000	93.1	-19.1312
285.000000	93.0	-18.8019
290.000000	92.9	-18.5497
295.000000	92.9	-18.3868
300.000000	92.8	-18.2260
304.000000	92.8	-18.0600
307.000000	92.7	-17.9174
311.000000	92.7	-17.7169
315.000000	92.6	-17.5109
320.000000	92.5	-17.2313
325.000000	92.4	-16.9111
330.000000	92.4	-16.5650
335.000000	92.3	-16.2197
340.000000	92.3	-15.8909
345.000000	92.2	-15.5728
350.000000	92.1	-15.2493
355.000000	92.1	-14.9147
360.000000	92.0	-14.5708
365.000000	92.0	-14.2202
370.000000	91.9	-13.8645
375.000000	91.8	-13.5039
382.000000	91.8	-12.9915
387.000000	91.7	-12.6209
395.000000	91.6	-12.0199
400.000000	91.6	-11.6417
406.000000	91.5	-11.1941
412.000000	91.5	-10.7555
418.000000	91.4	-10.3085
425.000000	91.4	-9.7524
431.000000	91.3	-9.2546
437.000000	91.3	-8.7637
444.000000	91.3	-8.2155
450.000000	91.2	-7.7821
455.000000	91.2	-7.4637
462.000000	91.2	-7.0705
468.000000	91.1	-6.7288
475.000000	91.1	-6.2844
482.000000	91.0	-5.8092
487.000000	91.0	-5.4652
494.000000	90.9	-4.9629
500.000000	90.9	-4.5004
508.000000	90.9	-3.8716
515.000000	90.8	-3.3405
522.000000	90.8	-2.8177
530.000000	90.7	-2.2014
538.000000	90.7	-1.5640
545.000000	90.7	-1.0052
552.000000	90.6	-0.4498
560.000000	90.6	0.1715
570.000000	90.5	0.9254
580.000000	90.5	1.6990
590.000000	90.4	2.5476
600.000000	90.4	3.5316
608.000000	90.3	4.4211
615.000000	90.3	5.2422
622.000000	90.3	6.0706
630.000000	90.3	6.9875
640.000000	90.4	8.0223
650.000000	90.4	8.9087
660.000000	90.5	9.6843
670.000000	90.5	10.3583
680.000000	90.5	10.9628
690.000000	90.5	11.5676
700.000000	90.5	12.2178
710.000000	90.5	12.9180
720.000000	90.5	13.6434
730.000000	90.6	14.3804
740.000000	90.6	15.1295
750.000000	90.6	15.8916
762.000000	90.6	16.8214
775.000000	90.6	17.8413
788.000000	90.7	18.8690
800.000000	90.7	19.8353
812.000000	90.7	20.8143
825.000000	90.8	21.8261
838.000000	90.9	22.7238
850.000000	91.0	23.4766
862.000000	91.0	24.2129
875.000000	91.1	25.0251
885.000000	91.1	25.6621
900.000000	91.2	26.6174
912.000000	91.3	27.3818
925.000000	91.3	28.2069
938.000000	91.4	29.0092
950.000000	91.5	29.7160
962.000000	91.6	30.3953
975.000000	91.7	31.1132
988.000000	91.8	31.8206
1000.000000	91.9	32.4719
1015.000000	92.0	33.3006
1030.000000	92.1	34.1261
1044.000000	92.2	34.8335
1060.000000	92.4	35.5086
1075.000000	92.5	36.0368
1090.000000	92.7	36.5097
1106.000000	92.8	36.9695
1120.000000	92.9	37.3401
1138.000000	93.1	37.7888
1150.000000	93.2	38.0793
1172.000000	93.4	38.6085
1180.000000	93.5	38.8012
1206.000000	93.7	39.3609
1220.000000	93.8	39.5658
1241.000000	94.0	39.7596
1250.000000	94.1	39.8233
1265.000000	94.2	39.9247
1280.000000	94.4	40.0284
1315.000000	94.6	40.2847
1320.000000	94.7	40.3187
1340.000000	94.8	40.4406
1360.000000	95.0	40.5560
1380.000000	95.2	40.6964
1400.000000	95.3	40.8833
1430.000000	95.6	41.1482
1450.000000	95.8	41.2180
1475.000000	96.1	41.1974
1500.000000	96.3	41.1142
1525.000000	96.5	41.0104
1550.000000	96.7	40.9114
1575.000000	96.9	40.7997
1600.000000	97.1	40.5790
1625.000000	97.2	40.1938
1650.000000	97.4	39.6872
1675.000000	97.6	39.1083
1700.000000	97.8	38.4704
1725.000000	97.9	37.7665
1750.000000	98.1	37.0152
1775.000000	98.2	36.2550
1800.000000	98.3	35.4787
1825.000000	98.4	34.6161
1850.000000	98.6	33.6270
1875.000000	98.7	32.5288
1900.000000	98.8	31.3606
1925.000000	98.9	30.1627
1950.000000	99.0	28.9527
1975.000000	99.1	27.7017
2000.000000	99.1	26.3713
2030.000000	99.2	24.6851
2060.000000	99.3	22.9728
2090.000000	99.3	21.3074
2120.000000	99.2	19.7579
2140.000000	99.2	18.8372
2180.000000	99.0	17.3755
2200.000000	98.9	16.8347
2240.000000	98.8	16.0580
2270.000000	98.7	15.6859
2300.000000	98.6	15.4359
2330.000000	98.6	15.2405
2360.000000	98.6	15.0194
2400.000000	98.5	14.6158
2430.000000	98.5	14.2731
2470.000000	98.5	13.8332
2500.000000	98.5	13.5065
2540.000000	98.4	13.0405
2580.000000	98.4	12.4885
2620.000000	98.4	11.7593
2650.000000	98.4	11.0933
2690.000000	98.4	10.1542
2720.000000	98.3	9.5019
2760.000000	98.2	8.7579
2800.000000	98.0	8.1512
2850.000000	97.9	7.5891
2900.000000	97.7	7.2821
2950.000000	97.4	7.3041
3000.000000	97.3	7.6367
3040.000000	97.1	8.0488
3070.000000	97.1	8.4207
3110.000000	97.0	8.9855
3150.000000	96.9	9.5754
3200.000000	96.9	10.2207
3250.000000	96.8	10.6704
3300.000000	96.8	10.9457
3350.000000	96.7	11.1808
3400.000000	96.7	11.5000
3450.000000	96.6	11.9996
3500.000000	96.5	12.7734
3550.000000	96.4	13.8090
3600.000000	96.4	14.9612
3650.000000	96.5	16.0665
3700.000000	96.5	17.0436
3750.000000	96.6	17.8970
3820.000000	96.7	18.9064
3870.000000	96.8	19.5349
3950.000000	97.0	20.4955
4000.000000	97.1	21.0476
4060.000000	97.2	21.5964
4120.000000	97.4	22.0018
4180.000000	97.6	22.2494
4250.000000	97.8	22.2943
4310.000000	98.0	22.1343
4370.000000	98.2	21.7845
4440.000000	98.4	21.0676
4500.000000	98.5	20.1619
4550.000000	98.7	19.2171
4620.000000	98.8	17.6342
4680.000000	98.9	16.0962
4750.000000	99.0	14.1769
4820.000000	99.0	12.1481
4870.000000	99.0	10.6351
4940.000000	98.9	8.4658
5000.000000	98.8	6.6098
5080.000000	98.6	4.2756
5150.000000	98.3	2.5120
5220.000000	98.1	1.0786
5300.000000	97.7	-0.1588
5380.000000	97.3	-1.0148
5450.000000	97.0	-1.4812
5520.000000	96.6	-1.6575
5600.000000	96.2	-1.4719
5700.000000	95.7	-0.7108
5800.000000	95.2	0.5066
5900.000000	94.8	2.0927
6000.000000	94.4	4.0533
6080.000000	94.2	5.8594
6150.000000	94.0	7.5654
6220.000000	93.8	9.3508
6300.000000	93.6	11.4749
6400.000000	93.5	14.2653
6500.000000	93.4	17.1826
6600.000000	93.4	20.1510
6700.000000	93.4	23.1094
6800.000000	93.6	26.0449
6900.000000	93.8	28.9218
7000.000000	94.1	31.6486
7100.000000	94.4	34.1262
7200.000000	94.9	36.2745
7300.000000	95.5	37.9714
7400.000000	96.2	39.0062
7500.000000	97.0	39.1079
7620.000000	98.0	37.5721
7750.000000	99.1	33.2167
7880.000000	99.9	25.5215
8000.000000	100.4	15.7920
8120.000000	100.3	4.9092
8250.000000	99.7	-6.0739
8380.000000	98.7	-14.4398
8500.000000	97.4	-19.2070
8620.000000	96.1	-21.3517
8750.000000	94.6	-21.3523
8850.000000	93.6	-20.0989
9000.000000	92.2	-16.6764
9120.000000	91.2	-12.9143
9250.000000	90.3	-7.9907
9380.000000	89.6	-2.2347
9500.000000	89.1	3.7622
9620.000000	88.8	10.2965
9750.000000	88.9	17.7062
9880.000000	89.3	24.8876
10000.000000	90.1	30.5935
10150.000000	91.3	35.5497
10300.000000	92.5	37.6199
10440.000000	93.6	37.1798
10600.000000	94.8	34.5037
10750.000000	95.8	30.0995
10900.000000	96.7	23.5237
11060.000000	97.3	13.7644
11200.000000	97.6	3.2715
11380.000000	97.3	-10.9006
11500.000000	96.7	-19.2704
11720.000000	95.0	-29.9388
11800.000000	94.2	-32.1686
12060.000000	91.7	-34.3853
12200.000000	90.4	-33.2566
12410.000000	88.8	-29.7372
12500.000000	88.2	-27.8003
12650.000000	87.4	-24.2445
12800.000000	86.8	-20.4878
13150.000000	86.3	-12.2247
13200.000000	86.3	-11.2363
13400.000000	86.7	-8.2402
13600.000000	87.3	-7.5223
13800.000000	88.0	-10.1653
14000.000000	88.5	-16.8441
14300.000000	88.5	-32.6277
14500.000000	87.7	-43.3707
14750.000000	86.0	-52.6757
15000.000000	83.9	-56.1254
15250.000000	81.8	-55.1512
15500.000000	80.2	-52.1754
15750.000000	79.3	-49.8937
16000.000000	79.3	-51.4503
16250.000000	79.6	-59.8881
16500.000000	79.4	-75.5494
16750.000000	78.3	-93.4365
17000.000000	76.2	-106.3138
17250.000000	73.2	-110.9180
17500.000000	69.6	-108.4752
17750.000000	65.8	-101.4684
18000.000000	62.1	-91.7498
18250.000000	58.5	-80.3405
18500.000000	55.3	-67.7407
18750.000000	52.4	-54.1888
19000.000000	49.8	-39.8036
19250.000000	47.5	-24.7607
19500.000000	45.4	-9.8094
19750.000000	43.6	3.1360
