* Measurement data measured by REW V5.20
* Source: Mic in at front panel (Pink) (Realtek(R) Audio), MICROPHONE (Master Volume), L, volume: 0.250
* Format: 256k Log Swept Sine, 1 sweep at -12.0 dBFS with no timing reference
* Dated: Oct 7, 2021 1:12:48 PM
* REW Settings:
*  C-weighting compensation: Off
*  Target level: 75.0 dB
* Note: BL03 R
* Measurement: Oct 7
* Smoothing: 1/12 octave
* Frequency Step: 1/48 octave
* Start Frequency: 20.000 Hz
*
* Freq(Hz)	SPL(dB)	Phase(degrees)
20.000000	104.1	25.7239
20.299999	104.2	25.0477
20.600000	104.2	24.3834
20.900000	104.2	23.7321
21.200001	104.2	23.0955
21.400000	104.2	22.6796
21.799999	104.2	21.8680
22.000000	104.2	21.4717
22.400000	104.2	20.6964
22.700001	104.2	20.1281
23.000000	104.2	19.5696
23.299999	104.3	19.0205
23.600000	104.3	18.4805
24.000000	104.3	17.7745
24.299999	104.3	17.2551
24.700001	104.3	16.5757
25.000000	104.3	16.0757
25.400000	104.3	15.4219
25.799999	104.3	14.7826
26.200001	104.3	14.1576
26.500000	104.3	13.6978
26.900000	104.3	13.0956
27.200001	104.3	12.6516
27.600000	104.3	12.0692
28.000000	104.3	11.4973
28.500000	104.3	10.7970
29.000000	104.3	10.1123
29.500000	104.3	9.4438
30.000000	104.3	8.7932
30.400000	104.2	8.2871
30.700001	104.2	7.9164
31.100000	104.2	7.4335
31.500000	104.2	6.9610
32.000000	104.2	6.3795
32.500000	104.2	5.8013
33.000000	104.2	5.2233
33.500000	104.2	4.6468
34.000000	104.2	4.0759
34.500000	104.2	3.5137
35.000000	104.2	2.9613
35.500000	104.2	2.4198
36.000000	104.1	1.8901
36.500000	104.1	1.3725
37.000000	104.1	0.8647
37.500000	104.1	0.3652
38.200001	104.1	-0.3175
38.700001	104.0	-0.7885
39.500000	104.0	-1.5121
40.000000	104.0	-1.9530
40.599998	104.0	-2.4776
41.200001	104.0	-2.9974
41.799999	103.9	-3.5083
42.500000	103.9	-4.0900
43.099998	103.9	-4.5759
43.700001	103.8	-5.0491
44.400002	103.8	-5.5832
45.000000	103.8	-6.0264
45.500000	103.8	-6.3868
46.200001	103.7	-6.8802
46.799999	103.7	-7.2946
47.500000	103.7	-7.7705
48.200001	103.6	-8.2396
48.700001	103.6	-8.5701
49.400002	103.6	-9.0264
50.000000	103.5	-9.4131
50.799999	103.5	-9.9180
51.500000	103.5	-10.3341
52.200001	103.4	-10.7153
53.000000	103.4	-11.1187
53.799999	103.3	-11.5057
54.500000	103.3	-11.8289
55.200001	103.3	-12.1313
56.000000	103.2	-12.4620
57.000000	103.2	-12.8868
58.000000	103.2	-13.3422
59.000000	103.2	-13.8208
60.000000	103.1	-14.3119
60.799999	103.1	-14.7164
61.500000	103.1	-15.0817
62.200001	103.1	-15.4551
63.000000	103.0	-15.8871
64.000000	103.0	-16.4260
65.000000	102.9	-16.9510
66.000000	102.9	-17.4535
67.000000	102.8	-17.9355
68.000000	102.8	-18.4022
69.000000	102.7	-18.8527
70.000000	102.7	-19.2743
71.000000	102.6	-19.6654
72.000000	102.6	-20.0455
73.000000	102.5	-20.4250
74.000000	102.5	-20.7986
75.000000	102.4	-21.1646
76.199997	102.4	-21.5972
77.500000	102.3	-22.0609
78.800003	102.3	-22.5273
80.000000	102.2	-22.9687
81.199997	102.1	-23.4217
82.500000	102.1	-23.9153
83.800003	102.0	-24.3910
85.000000	101.9	-24.7910
86.199997	101.8	-25.1395
87.500000	101.7	-25.4642
88.500000	101.7	-25.6848
90.000000	101.6	-25.9749
91.199997	101.5	-26.1732
92.500000	101.4	-26.3529
93.800003	101.4	-26.4956
95.000000	101.3	-26.6062
96.199997	101.2	-26.7214
97.500000	101.2	-26.8793
98.800003	101.1	-27.0796
100.000000	101.1	-27.2975
101.500000	101.0	-27.5973
103.000000	101.0	-27.8872
104.400002	100.9	-28.1061
106.000000	100.8	-28.2798
107.500000	100.8	-28.4183
109.000000	100.7	-28.6005
110.599998	100.7	-28.8574
112.000000	100.6	-29.0920
113.800003	100.5	-29.3086
115.000000	100.5	-29.3525
117.199997	100.4	-29.1989
118.000000	100.3	-29.1034
120.599998	100.2	-29.1445
122.000000	100.2	-29.5466
124.099998	100.1	-30.3253
125.000000	100.1	-30.6185
126.500000	100.0	-31.0008
128.000000	100.0	-31.2601
131.500000	99.8	-31.6464
132.000000	99.8	-31.7003
134.000000	99.7	-31.9307
136.000000	99.6	-32.1616
138.000000	99.6	-32.3635
140.000000	99.5	-32.5288
143.000000	99.4	-32.7383
145.000000	99.3	-32.8862
147.500000	99.2	-33.0896
150.000000	99.0	-33.2740
152.500000	98.9	-33.4058
155.000000	98.8	-33.4689
157.500000	98.7	-33.4951
160.000000	98.6	-33.5417
162.500000	98.6	-33.6201
165.000000	98.5	-33.7093
167.500000	98.4	-33.7848
170.000000	98.3	-33.8240
172.500000	98.2	-33.8246
175.000000	98.1	-33.8063
177.500000	98.0	-33.7882
180.000000	97.9	-33.7777
182.500000	97.8	-33.7745
185.000000	97.8	-33.7761
187.500000	97.7	-33.7793
190.000000	97.6	-33.7792
192.500000	97.5	-33.7684
195.000000	97.4	-33.7433
197.500000	97.4	-33.7003
200.000000	97.3	-33.6372
203.000000	97.2	-33.5409
206.000000	97.1	-33.4445
209.000000	97.0	-33.3652
212.000000	96.9	-33.2948
214.000000	96.8	-33.2397
218.000000	96.7	-33.0769
220.000000	96.7	-32.9683
224.000000	96.5	-32.7343
227.000000	96.5	-32.5695
230.000000	96.4	-32.4178
233.000000	96.3	-32.2738
236.000000	96.2	-32.1343
240.000000	96.1	-31.9560
243.000000	96.1	-31.8223
247.000000	96.0	-31.6192
250.000000	95.9	-31.4291
254.000000	95.8	-31.1160
258.000000	95.7	-30.7782
262.000000	95.6	-30.4877
265.000000	95.5	-30.3054
269.000000	95.5	-30.0646
272.000000	95.4	-29.8612
276.000000	95.3	-29.5564
280.000000	95.2	-29.2286
285.000000	95.1	-28.8254
290.000000	95.1	-28.4987
295.000000	95.0	-28.2614
300.000000	94.9	-28.0251
304.000000	94.8	-27.7964
307.000000	94.7	-27.6059
311.000000	94.7	-27.3434
315.000000	94.6	-27.0795
320.000000	94.5	-26.7294
325.000000	94.4	-26.3357
330.000000	94.3	-25.9147
335.000000	94.2	-25.4945
340.000000	94.2	-25.0912
345.000000	94.1	-24.6987
350.000000	94.0	-24.3012
355.000000	93.9	-23.8935
360.000000	93.9	-23.4777
365.000000	93.8	-23.0542
370.000000	93.7	-22.6237
375.000000	93.6	-22.1874
382.000000	93.5	-21.5695
387.000000	93.5	-21.1256
395.000000	93.4	-20.4138
400.000000	93.3	-19.9681
406.000000	93.3	-19.4357
412.000000	93.2	-18.9080
418.000000	93.1	-18.3735
425.000000	93.1	-17.7210
431.000000	93.0	-17.1411
437.000000	93.0	-16.5661
444.000000	92.9	-15.9216
450.000000	92.9	-15.4088
455.000000	92.8	-15.0253
462.000000	92.8	-14.5395
468.000000	92.7	-14.1173
475.000000	92.7	-13.5802
482.000000	92.6	-13.0148
487.000000	92.6	-12.6075
494.000000	92.5	-12.0188
500.000000	92.5	-11.4850
508.000000	92.4	-10.7654
515.000000	92.4	-10.1614
522.000000	92.3	-9.5745
530.000000	92.3	-8.8910
538.000000	92.2	-8.1783
545.000000	92.2	-7.5390
552.000000	92.2	-6.9022
560.000000	92.1	-6.2202
570.000000	92.1	-5.4880
580.000000	92.1	-4.8911
590.000000	92.0	-4.3942
600.000000	91.9	-3.8511
608.000000	91.8	-3.2390
615.000000	91.7	-2.5211
622.000000	91.7	-1.6505
630.000000	91.6	-0.5454
640.000000	91.6	0.8464
650.000000	91.6	2.1418
660.000000	91.6	3.3160
670.000000	91.6	4.3411
680.000000	91.6	5.2397
690.000000	91.6	6.0891
700.000000	91.6	6.9452
710.000000	91.7	7.8225
720.000000	91.7	8.7045
730.000000	91.7	9.5829
740.000000	91.7	10.4619
750.000000	91.7	11.3452
762.000000	91.7	12.4103
775.000000	91.8	13.5651
788.000000	91.8	14.7164
800.000000	91.8	15.7893
812.000000	91.9	16.8682
825.000000	92.0	17.9810
838.000000	92.0	18.9744
850.000000	92.1	19.8129
862.000000	92.2	20.6332
875.000000	92.2	21.5328
885.000000	92.3	22.2334
900.000000	92.4	23.2774
912.000000	92.4	24.1065
925.000000	92.5	24.9944
938.000000	92.6	25.8522
950.000000	92.7	26.6064
962.000000	92.8	27.3318
975.000000	92.9	28.1009
988.000000	93.0	28.8630
1000.000000	93.1	29.5711
1015.000000	93.2	30.4816
1030.000000	93.3	31.4005
1044.000000	93.4	32.1994
1060.000000	93.6	32.9700
1075.000000	93.8	33.5630
1090.000000	93.9	34.0668
1106.000000	94.1	34.5211
1120.000000	94.2	34.8600
1138.000000	94.4	35.2456
1150.000000	94.5	35.4875
1172.000000	94.7	35.9268
1180.000000	94.8	36.0885
1206.000000	95.0	36.5559
1220.000000	95.1	36.7159
1241.000000	95.3	36.8460
1250.000000	95.4	36.8836
1265.000000	95.5	36.9431
1280.000000	95.6	37.0066
1315.000000	95.8	37.1723
1320.000000	95.9	37.1934
1340.000000	96.0	37.2639
1360.000000	96.1	37.3283
1380.000000	96.2	37.4194
1400.000000	96.4	37.5592
1430.000000	96.6	37.7568
1450.000000	96.7	37.7834
1475.000000	96.9	37.7104
1500.000000	97.1	37.5775
1525.000000	97.2	37.4277
1550.000000	97.4	37.2882
1575.000000	97.6	37.1429
1600.000000	97.7	36.8982
1625.000000	97.9	36.5008
1650.000000	98.1	35.9966
1675.000000	98.2	35.4376
1700.000000	98.4	34.8396
1725.000000	98.5	34.1991
1750.000000	98.6	33.5398
1775.000000	98.7	32.9070
1800.000000	98.8	32.3005
1825.000000	98.9	31.6584
1850.000000	99.0	30.9478
1875.000000	99.0	30.1902
1900.000000	99.1	29.4221
1925.000000	99.1	28.6738
1950.000000	99.2	27.9519
1975.000000	99.2	27.2262
2000.000000	99.2	26.4742
2030.000000	99.2	25.5953
2060.000000	99.2	24.8715
2090.000000	99.1	24.4191
2120.000000	99.1	24.2970
2140.000000	99.1	24.3967
2180.000000	99.1	24.8345
2200.000000	99.2	24.9901
2240.000000	99.4	24.7242
2270.000000	99.6	23.9221
2300.000000	99.7	22.7621
2330.000000	99.7	21.4937
2360.000000	99.7	20.2950
2400.000000	99.7	18.9149
2430.000000	99.6	18.0569
2470.000000	99.6	17.1053
2500.000000	99.5	16.4730
2540.000000	99.4	15.6790
2580.000000	99.3	14.9229
2620.000000	99.3	14.1908
2650.000000	99.2	13.6844
2690.000000	99.0	13.1454
2720.000000	98.9	12.8797
2760.000000	98.8	12.6774
2800.000000	98.7	12.5597
2850.000000	98.6	12.4452
2900.000000	98.4	12.3644
2950.000000	98.3	12.4192
3000.000000	98.1	12.6630
3040.000000	98.0	12.9703
3070.000000	97.9	13.2698
3110.000000	97.8	13.7773
3150.000000	97.8	14.3872
3200.000000	97.7	15.2028
3250.000000	97.7	15.9881
3300.000000	97.6	16.7113
3350.000000	97.6	17.4044
3400.000000	97.6	18.0708
3450.000000	97.6	18.7077
3500.000000	97.6	19.3762
3550.000000	97.6	20.1212
3600.000000	97.6	20.9144
3650.000000	97.7	21.7014
3700.000000	97.7	22.4562
3750.000000	97.8	23.1854
3820.000000	97.9	24.1414
3870.000000	98.0	24.7812
3950.000000	98.2	25.7778
4000.000000	98.4	26.3248
4060.000000	98.6	26.7922
4120.000000	98.8	26.9945
4180.000000	99.1	26.9017
4250.000000	99.4	26.3989
4310.000000	99.6	25.6790
4370.000000	99.8	24.7197
4440.000000	100.1	23.2531
4500.000000	100.3	21.6726
4550.000000	100.4	20.1367
4620.000000	100.6	17.6779
4680.000000	100.7	15.3556
4750.000000	100.7	12.5195
4820.000000	100.6	9.6273
4870.000000	100.5	7.5643
4940.000000	100.4	4.7634
5000.000000	100.2	2.5237
5080.000000	99.8	-0.0753
5150.000000	99.4	-1.8584
5220.000000	99.0	-3.1578
5300.000000	98.5	-4.1061
5380.000000	98.0	-4.5457
5450.000000	97.6	-4.5439
5520.000000	97.2	-4.1855
5600.000000	96.7	-3.3932
5700.000000	96.2	-1.9897
5800.000000	95.7	-0.2377
5900.000000	95.3	1.8498
6000.000000	95.0	4.3016
6080.000000	94.7	6.4874
6150.000000	94.5	8.5114
6220.000000	94.4	10.5990
6300.000000	94.3	13.0481
6400.000000	94.1	16.2133
6500.000000	94.1	19.4692
6600.000000	94.2	22.7399
6700.000000	94.3	25.9624
6800.000000	94.5	29.1197
6900.000000	94.8	32.1710
7000.000000	95.1	35.0198
7100.000000	95.6	37.5616
7200.000000	96.2	39.7086
7300.000000	96.9	41.3272
7400.000000	97.7	42.1905
7500.000000	98.5	42.0104
7620.000000	99.6	39.9813
7750.000000	100.8	34.9507
7880.000000	101.6	26.6284
8000.000000	101.9	16.6479
8120.000000	101.8	6.0344
8250.000000	101.2	-4.1299
8380.000000	100.1	-11.4598
8500.000000	99.0	-15.3756
8620.000000	97.8	-16.9194
8750.000000	96.5	-16.5964
8850.000000	95.7	-15.3262
9000.000000	94.6	-12.2659
9120.000000	93.9	-9.1670
9250.000000	93.3	-5.4166
9380.000000	92.9	-1.4104
9500.000000	92.7	2.3822
9620.000000	92.6	6.1461
9750.000000	92.7	10.0797
9880.000000	93.0	13.6934
10000.000000	93.4	16.5029
10150.000000	94.3	18.8227
10300.000000	95.3	18.9899
10440.000000	96.3	16.1884
10600.000000	97.3	8.5580
10750.000000	97.6	-2.4722
10900.000000	97.4	-14.8115
11060.000000	96.3	-25.4634
11200.000000	94.9	-30.3639
11380.000000	92.7	-30.1356
11500.000000	91.4	-26.7757
11720.000000	89.5	-17.4246
11800.000000	89.2	-13.9525
12060.000000	89.2	-5.9597
12200.000000	89.4	-4.3803
12410.000000	89.6	-4.5150
12500.000000	89.6	-4.9648
12650.000000	89.6	-5.6816
12800.000000	89.5	-6.1381
13150.000000	89.7	-7.4285
13200.000000	89.8	-7.9037
13400.000000	90.3	-11.3891
13600.000000	90.6	-18.1044
13800.000000	90.7	-27.9246
14000.000000	90.2	-39.0653
14300.000000	88.4	-52.6047
14500.000000	86.8	-57.2719
14750.000000	84.6	-58.4441
15000.000000	82.5	-56.3007
15250.000000	81.1	-53.1108
15500.000000	80.4	-51.3890
15750.000000	80.4	-54.2745
16000.000000	80.6	-64.7131
16250.000000	80.2	-82.1426
16500.000000	78.8	-100.2457
16750.000000	76.3	-111.9125
17000.000000	73.1	-115.2249
17250.000000	69.3	-112.2700
17500.000000	65.4	-105.6001
17750.000000	61.5	-96.8456
18000.000000	57.8	-86.8208
18250.000000	54.4	-75.8679
18500.000000	51.2	-64.0723
18750.000000	48.3	-51.2301
19000.000000	45.5	-36.4940
19250.000000	42.8	-18.5045
19500.000000	40.2	3.1619
19750.000000	37.8	25.4029
