* Measurement data measured by REW V5.20
* Source: Mic in at front panel (Pink) (Realtek(R) Audio), MICROPHONE (Master Volume), L, volume: 0.250
* Format: 256k Log Swept Sine, 1 sweep at -12.0 dBFS with no timing reference
* Dated: Nov 13, 2021 12:41:55 PM
* REW Settings:
*  C-weighting compensation: Off
*  Target level: 75.0 dB
* Note: Titan Tanya
* Measurement: edx L Nov 13
* Smoothing: 1/12 octave
* Frequency Step: 1/48 octave
* Start Frequency: 20.000 Hz
*
* Freq(Hz)	SPL(dB)	Phase(degrees)
20.000000	94.8	35.8508
20.299999	94.8	35.1324
20.600000	94.8	34.4237
20.900000	94.9	33.7309
21.200001	94.9	33.0590
21.400000	94.9	32.6234
21.799999	94.9	31.7772
22.000000	94.9	31.3632
22.400000	94.9	30.5451
22.700001	95.0	29.9373
23.000000	95.0	29.3364
23.299999	95.0	28.7480
23.600000	95.0	28.1766
24.000000	95.0	27.4440
24.299999	95.0	26.9122
24.700001	95.0	26.2158
25.000000	95.0	25.6952
25.400000	95.0	24.9996
25.799999	95.1	24.3090
26.200001	95.1	23.6348
26.500000	95.1	23.1447
26.900000	95.1	22.5112
27.200001	95.1	22.0461
27.600000	95.1	21.4312
28.000000	95.1	20.8170
28.500000	95.1	20.0546
29.000000	95.1	19.3145
29.500000	95.1	18.6089
30.000000	95.1	17.9338
30.400000	95.1	17.4052
30.700001	95.1	17.0106
31.100000	95.1	16.4865
31.500000	95.1	15.9691
32.000000	95.1	15.3428
32.500000	95.1	14.7451
33.000000	95.0	14.1680
33.500000	95.0	13.5984
34.000000	95.0	13.0328
34.500000	95.0	12.4802
35.000000	95.0	11.9502
35.500000	95.0	11.4418
36.000000	95.0	10.9473
36.500000	95.0	10.4622
37.000000	95.0	9.9865
37.500000	95.0	9.5176
38.200001	94.9	8.8527
38.700001	94.9	8.3635
39.500000	94.9	7.5898
40.000000	94.9	7.1356
40.599998	94.9	6.6115
41.200001	94.9	6.0797
41.799999	94.8	5.5416
42.500000	94.8	4.9530
43.099998	94.8	4.4963
43.700001	94.8	4.0450
44.400002	94.8	3.4935
45.000000	94.8	3.0225
45.500000	94.7	2.6470
46.200001	94.7	2.1241
46.799999	94.7	1.6595
47.500000	94.7	1.1500
48.200001	94.6	0.7515
48.700001	94.6	0.5311
49.400002	94.5	0.2438
50.000000	94.5	-0.0392
50.799999	94.5	-0.5015
51.500000	94.4	-0.9534
52.200001	94.4	-1.3663
53.000000	94.3	-1.7051
53.799999	94.2	-1.9200
54.500000	94.2	-2.0728
55.200001	94.2	-2.2338
56.000000	94.2	-2.4647
57.000000	94.2	-2.8749
58.000000	94.2	-3.3768
59.000000	94.2	-3.8529
60.000000	94.2	-4.2780
60.799999	94.1	-4.6320
61.500000	94.1	-4.9775
62.200001	94.1	-5.3579
63.000000	94.1	-5.8151
64.000000	94.1	-6.3414
65.000000	94.1	-6.7491
66.000000	94.0	-7.0673
67.000000	94.0	-7.3495
68.000000	94.0	-7.6598
69.000000	93.9	-8.0311
70.000000	93.9	-8.4565
71.000000	93.8	-8.8982
72.000000	93.7	-9.2766
73.000000	93.6	-9.6169
74.000000	93.6	-9.9871
75.000000	93.5	-10.3492
76.199997	93.5	-10.7206
77.500000	93.5	-11.0541
78.800003	93.4	-11.2969
80.000000	93.4	-11.5286
81.199997	93.4	-11.8793
82.500000	93.3	-12.3662
83.800003	93.3	-12.8931
85.000000	93.2	-13.3591
86.199997	93.2	-13.7360
87.500000	93.1	-14.0312
88.500000	93.0	-14.1798
90.000000	92.9	-14.2594
91.199997	92.9	-14.2607
92.500000	92.8	-14.3341
93.800003	92.8	-14.5828
95.000000	92.8	-14.9032
96.199997	92.7	-15.1826
97.500000	92.7	-15.3823
98.800003	92.6	-15.4893
100.000000	92.6	-15.5520
101.500000	92.5	-15.6377
103.000000	92.5	-15.7680
104.400002	92.4	-15.9118
106.000000	92.3	-15.9636
107.500000	92.3	-15.8995
109.000000	92.2	-15.9374
110.599998	92.1	-16.2540
112.000000	92.1	-16.7706
113.800003	92.0	-17.5874
115.000000	92.0	-18.0057
117.199997	92.0	-17.8787
118.000000	92.0	-17.5366
120.599998	92.1	-16.5507
122.000000	92.0	-16.4658
124.099998	91.9	-16.7131
125.000000	91.8	-16.8884
126.500000	91.7	-17.1814
128.000000	91.7	-17.3820
131.500000	91.6	-17.5209
132.000000	91.6	-17.5436
134.000000	91.5	-17.6943
136.000000	91.5	-17.8879
138.000000	91.4	-18.0323
140.000000	91.3	-18.1055
143.000000	91.3	-18.1425
145.000000	91.2	-18.1431
147.500000	91.1	-18.1151
150.000000	91.0	-18.0567
152.500000	91.0	-17.9940
155.000000	90.9	-17.9418
157.500000	90.8	-17.8985
160.000000	90.8	-17.8724
162.500000	90.7	-17.8704
165.000000	90.7	-17.8675
167.500000	90.6	-17.8512
170.000000	90.6	-17.8101
172.500000	90.5	-17.7249
175.000000	90.4	-17.6105
177.500000	90.4	-17.5050
180.000000	90.3	-17.4354
182.500000	90.3	-17.4044
185.000000	90.2	-17.3882
187.500000	90.2	-17.3655
190.000000	90.1	-17.3331
192.500000	90.1	-17.2888
195.000000	90.1	-17.2263
197.500000	90.0	-17.1412
200.000000	90.0	-17.0325
203.000000	89.9	-16.8833
206.000000	89.9	-16.7428
209.000000	89.8	-16.6335
212.000000	89.8	-16.5504
214.000000	89.7	-16.4930
218.000000	89.7	-16.3203
220.000000	89.6	-16.2034
224.000000	89.6	-15.9597
227.000000	89.5	-15.7977
230.000000	89.5	-15.6510
233.000000	89.4	-15.5071
236.000000	89.4	-15.3643
240.000000	89.4	-15.1865
243.000000	89.3	-15.0590
247.000000	89.3	-14.8722
250.000000	89.2	-14.6996
254.000000	89.2	-14.4148
258.000000	89.1	-14.1109
262.000000	89.1	-13.8618
265.000000	89.1	-13.7149
269.000000	89.0	-13.5272
272.000000	89.0	-13.3682
276.000000	88.9	-13.1241
280.000000	88.9	-12.8533
285.000000	88.9	-12.5254
290.000000	88.9	-12.2834
295.000000	88.8	-12.1346
300.000000	88.8	-11.9933
304.000000	88.8	-11.8484
307.000000	88.7	-11.7245
311.000000	88.7	-11.5516
315.000000	88.7	-11.3759
320.000000	88.6	-11.1374
325.000000	88.6	-10.8630
330.000000	88.5	-10.5706
335.000000	88.5	-10.2858
340.000000	88.5	-10.0214
345.000000	88.4	-9.7703
350.000000	88.4	-9.5164
355.000000	88.4	-9.2538
360.000000	88.3	-8.9863
365.000000	88.3	-8.7176
370.000000	88.3	-8.4478
375.000000	88.2	-8.1761
382.000000	88.2	-7.7930
387.000000	88.2	-7.5177
395.000000	88.1	-7.0760
400.000000	88.1	-6.8027
406.000000	88.1	-6.4848
412.000000	88.0	-6.1785
418.000000	88.0	-5.8652
425.000000	88.0	-5.4661
431.000000	87.9	-5.1035
437.000000	87.9	-4.7480
444.000000	87.9	-4.3615
450.000000	87.9	-4.0714
455.000000	87.9	-3.8754
462.000000	87.9	-3.6545
468.000000	87.9	-3.4592
475.000000	87.8	-3.1846
482.000000	87.8	-2.8811
487.000000	87.8	-2.6621
494.000000	87.7	-2.3365
500.000000	87.7	-2.0261
508.000000	87.7	-1.5995
515.000000	87.7	-1.2450
522.000000	87.6	-0.8987
530.000000	87.6	-0.4821
538.000000	87.6	-0.0417
545.000000	87.6	0.3459
552.000000	87.5	0.7295
560.000000	87.5	1.1528
570.000000	87.5	1.6552
580.000000	87.5	2.1593
590.000000	87.5	2.6835
600.000000	87.4	3.2360
608.000000	87.4	3.6858
615.000000	87.4	4.0749
622.000000	87.4	4.4701
630.000000	87.4	4.9495
640.000000	87.4	5.5835
650.000000	87.4	6.2266
660.000000	87.4	6.8497
670.000000	87.4	7.3959
680.000000	87.4	7.8621
690.000000	87.4	8.3077
700.000000	87.4	8.7795
710.000000	87.4	9.2866
720.000000	87.4	9.8076
730.000000	87.4	10.3318
740.000000	87.4	10.8636
750.000000	87.4	11.4066
762.000000	87.4	12.0723
775.000000	87.5	12.8043
788.000000	87.5	13.5426
800.000000	87.5	14.2405
812.000000	87.5	14.9509
825.000000	87.6	15.6733
838.000000	87.7	16.2857
850.000000	87.7	16.7798
862.000000	87.7	17.2617
875.000000	87.8	17.8010
885.000000	87.8	18.2283
900.000000	87.9	18.8680
912.000000	87.9	19.3795
925.000000	88.0	19.9282
938.000000	88.0	20.4507
950.000000	88.1	20.8970
962.000000	88.1	21.3136
975.000000	88.2	21.7430
988.000000	88.2	22.1552
1000.000000	88.3	22.5264
1015.000000	88.4	22.9905
1030.000000	88.5	23.4322
1044.000000	88.6	23.7662
1060.000000	88.7	24.0134
1075.000000	88.7	24.1652
1090.000000	88.8	24.3030
1106.000000	88.9	24.4394
1120.000000	88.9	24.5414
1138.000000	88.9	24.7078
1150.000000	88.9	24.9177
1172.000000	89.0	25.6793
1180.000000	89.0	26.0765
1206.000000	89.1	27.4539
1220.000000	89.3	27.9988
1241.000000	89.5	28.3826
1250.000000	89.6	28.4106
1265.000000	89.7	28.3367
1280.000000	89.8	28.1781
1315.000000	90.0	27.7710
1320.000000	90.0	27.7200
1340.000000	90.1	27.5413
1360.000000	90.1	27.4196
1380.000000	90.2	27.3822
1400.000000	90.3	27.4435
1430.000000	90.4	27.6091
1450.000000	90.5	27.6686
1475.000000	90.6	27.6941
1500.000000	90.7	27.7219
1525.000000	90.7	27.7941
1550.000000	90.8	27.9379
1575.000000	90.8	28.1395
1600.000000	90.9	28.3061
1625.000000	90.9	28.3852
1650.000000	90.9	28.4244
1675.000000	90.9	28.4776
1700.000000	91.0	28.5615
1725.000000	91.0	28.6758
1750.000000	91.0	28.8486
1775.000000	91.0	29.1289
1800.000000	91.0	29.5189
1825.000000	91.0	29.9524
1850.000000	91.0	30.3796
1875.000000	91.1	30.7866
1900.000000	91.1	31.1606
1925.000000	91.2	31.4885
1950.000000	91.3	31.7593
1975.000000	91.4	31.9494
2000.000000	91.5	32.0481
2030.000000	91.6	32.1004
2060.000000	91.7	32.1749
2090.000000	91.8	32.3405
2120.000000	91.8	32.6486
2140.000000	91.8	32.9740
2180.000000	91.9	34.0182
2200.000000	91.9	34.7341
2240.000000	92.1	36.4221
2270.000000	92.3	37.7391
2300.000000	92.6	38.8796
2330.000000	92.9	39.6453
2360.000000	93.3	39.9062
2400.000000	93.7	39.4902
2430.000000	94.0	38.8008
2470.000000	94.3	37.7215
2500.000000	94.4	36.9499
2540.000000	94.7	36.0912
2580.000000	94.9	35.4109
2620.000000	95.1	34.7290
2650.000000	95.3	34.1172
2690.000000	95.6	33.1482
2720.000000	95.7	32.3404
2760.000000	96.0	31.1773
2800.000000	96.2	29.9014
2850.000000	96.5	28.1345
2900.000000	96.7	26.1703
2950.000000	97.0	24.0435
3000.000000	97.2	21.7448
3040.000000	97.3	19.7472
3070.000000	97.4	18.1675
3110.000000	97.5	15.9837
3150.000000	97.6	13.7092
3200.000000	97.7	10.6851
3250.000000	97.8	7.4344
3300.000000	97.7	4.0272
3350.000000	97.6	0.6240
3400.000000	97.4	-2.6406
3450.000000	97.2	-5.6625
3500.000000	96.9	-8.3111
3550.000000	96.5	-10.5094
3600.000000	96.1	-12.2709
3650.000000	95.8	-13.6325
3700.000000	95.4	-14.5955
3750.000000	94.9	-15.1353
3820.000000	94.4	-15.2159
3870.000000	94.0	-14.8327
3950.000000	93.5	-13.5556
4000.000000	93.3	-12.5000
4060.000000	93.0	-11.1900
4120.000000	92.9	-9.9797
4180.000000	92.8	-8.9690
4250.000000	92.7	-8.1223
4310.000000	92.6	-7.6551
4370.000000	92.6	-7.3959
4440.000000	92.5	-7.3647
4500.000000	92.4	-7.5392
4550.000000	92.4	-7.7695
4620.000000	92.2	-8.1328
4680.000000	92.1	-8.3864
4750.000000	91.8	-8.5210
4820.000000	91.6	-8.4895
4870.000000	91.5	-8.3943
4940.000000	91.3	-8.1726
5000.000000	91.1	-7.8990
5080.000000	90.8	-7.3683
5150.000000	90.6	-6.6945
5220.000000	90.4	-5.8430
5300.000000	90.2	-4.7323
5380.000000	90.0	-3.5490
5450.000000	89.8	-2.4783
5520.000000	89.6	-1.3456
5600.000000	89.5	0.0478
5700.000000	89.3	1.8897
5800.000000	89.1	3.7704
5900.000000	89.0	5.7014
6000.000000	88.9	7.7778
6080.000000	88.9	9.5361
6150.000000	88.8	11.0940
6220.000000	88.8	12.6289
6300.000000	88.9	14.3462
6400.000000	88.9	16.4652
6500.000000	89.1	18.5513
6600.000000	89.2	20.5476
6700.000000	89.4	22.4073
6800.000000	89.7	24.1255
6900.000000	90.0	25.6731
7000.000000	90.3	26.9662
7100.000000	90.7	27.9145
7200.000000	91.2	28.4514
7300.000000	91.7	28.4814
7400.000000	92.2	27.8503
7500.000000	92.8	26.4004
7620.000000	93.4	23.4344
7750.000000	94.0	18.6072
7880.000000	94.3	12.1675
8000.000000	94.4	5.2372
8120.000000	94.3	-1.9026
8250.000000	93.8	-9.0305
8380.000000	93.1	-14.8384
8500.000000	92.2	-18.6843
8620.000000	91.3	-21.0728
8750.000000	90.3	-22.2501
8850.000000	89.6	-22.3298
9000.000000	88.5	-21.3848
9120.000000	87.8	-19.9474
9250.000000	87.0	-17.8890
9380.000000	86.3	-15.4001
9500.000000	85.8	-12.7971
9620.000000	85.3	-9.9596
9750.000000	84.9	-6.6437
9880.000000	84.5	-3.1073
10000.000000	84.2	0.2990
10150.000000	84.0	4.6891
10300.000000	83.9	9.1456
10440.000000	83.9	13.2579
10600.000000	84.0	17.8265
10750.000000	84.3	21.9281
10900.000000	84.6	25.7836
11060.000000	85.1	29.5524
11200.000000	85.7	32.4360
11380.000000	86.6	35.2476
11500.000000	87.3	36.2767
11720.000000	88.8	35.4380
11800.000000	89.3	34.0287
12060.000000	90.6	25.0651
12200.000000	91.0	17.9598
12410.000000	91.1	6.0600
12500.000000	90.9	1.0574
12650.000000	90.5	-6.4808
12800.000000	89.7	-12.5344
13150.000000	87.5	-19.9985
13200.000000	87.2	-20.3691
13400.000000	85.8	-20.5067
13600.000000	84.6	-18.9798
13800.000000	83.6	-16.3456
14000.000000	82.8	-13.0215
14300.000000	81.9	-7.4320
14500.000000	81.6	-3.7003
14750.000000	81.5	0.5050
15000.000000	81.6	3.7103
15250.000000	82.1	5.2983
15500.000000	82.8	4.4554
15750.000000	83.5	0.3138
16000.000000	83.9	-7.4969
16250.000000	83.9	-18.1193
16500.000000	83.4	-29.4000
16750.000000	82.3	-38.9906
17000.000000	80.8	-45.6199
17250.000000	79.0	-49.3097
17500.000000	77.3	-50.7802
17750.000000	75.6	-50.8636
18000.000000	73.9	-50.2156
18250.000000	72.4	-49.2318
18500.000000	70.9	-47.9817
18750.000000	69.4	-46.0335
19000.000000	67.8	-42.4966
19250.000000	66.1	-37.1576
19500.000000	64.5	-31.3339
19750.000000	63.2	-26.5111
