* Measurement data measured by REW V5.20.13
* Source: EXCL: Mic in at front panel (Pink) (Realtek(R) Audio), MICROPHONE (Master Volume), L, volume: 0.250
* Format: 256k Log Swept Sine, 1 sweep at -12.0 dBFS with no timing reference
* Dated: Jan 3, 2023 1:30:08 AM
* REW Settings:
*  C-weighting compensation: Off
*  Target level: 75.0 dB
* Note: HarmonicDyne Devil L
* Measurement: Devil Stock L
* Smoothing: 1/12 octave
* Frequency Step: 1/48 octave
* Start Frequency: 20.000 Hz
*
* Freq(Hz)	SPL(dB)	Phase(degrees)
20.000000	92.048	45.7054
20.299999	92.092	45.0205
20.600000	92.135	44.3552
20.900000	92.176	43.7096
21.200001	92.215	43.0830
21.400000	92.241	42.6746
21.799999	92.291	41.8752
22.000000	92.316	41.4812
22.400000	92.364	40.6979
22.700001	92.399	40.1111
23.000000	92.431	39.5247
23.299999	92.461	38.9435
23.600000	92.487	38.3735
24.000000	92.517	37.6408
24.299999	92.538	37.1157
24.700001	92.566	36.4462
25.000000	92.588	35.9604
25.400000	92.617	35.3239
25.799999	92.646	34.6924
26.200001	92.674	34.0662
26.500000	92.693	33.6042
26.900000	92.717	33.0040
27.200001	92.734	32.5671
27.600000	92.757	31.9999
28.000000	92.780	31.4443
28.500000	92.808	30.7575
29.000000	92.834	30.0778
29.500000	92.857	29.4117
30.000000	92.876	28.7675
30.400000	92.889	28.2708
30.700001	92.899	27.9093
31.100000	92.910	27.4423
31.500000	92.921	26.9921
32.000000	92.935	26.4514
32.500000	92.950	25.9297
33.000000	92.967	25.4153
33.500000	92.983	24.8977
34.000000	92.998	24.3740
34.500000	93.009	23.8529
35.000000	93.016	23.3475
35.500000	93.022	22.8649
36.000000	93.026	22.4013
36.500000	93.030	21.9497
37.000000	93.034	21.5078
37.500000	93.035	21.0790
38.200001	93.037	20.5026
38.700001	93.039	20.1009
39.500000	93.039	19.4644
40.000000	93.038	19.0773
40.599998	93.034	18.6351
41.200001	93.031	18.2178
41.799999	93.031	17.8149
42.500000	93.031	17.3480
43.099998	93.031	16.9482
43.700001	93.030	16.5577
44.400002	93.027	16.1254
45.000000	93.025	15.7736
45.500000	93.025	15.4854
46.200001	93.024	15.0794
46.799999	93.022	14.7332
47.500000	93.016	14.3495
48.200001	93.010	13.9946
48.700001	93.006	13.7518
49.400002	93.002	13.4161
50.000000	92.998	13.1331
50.799999	92.994	12.7647
51.500000	92.990	12.4404
52.200001	92.985	12.1125
53.000000	92.977	11.7585
53.799999	92.969	11.4426
54.500000	92.966	11.1814
55.200001	92.966	10.9177
56.000000	92.966	10.6125
57.000000	92.966	10.2402
58.000000	92.968	9.8792
59.000000	92.970	9.4949
60.000000	92.964	9.0786
60.799999	92.950	8.7686
61.500000	92.935	8.5401
62.200001	92.922	8.3456
63.000000	92.913	8.1414
64.000000	92.907	7.8821
65.000000	92.905	7.6033
66.000000	92.904	7.3081
67.000000	92.902	7.0115
68.000000	92.898	6.7242
69.000000	92.893	6.4356
70.000000	92.885	6.1356
71.000000	92.871	5.8365
72.000000	92.854	5.5492
73.000000	92.837	5.2720
74.000000	92.821	5.0050
75.000000	92.809	4.7476
76.199997	92.800	4.4446
77.500000	92.794	4.1279
78.800003	92.792	3.8293
80.000000	92.791	3.5538
81.199997	92.786	3.2650
82.500000	92.771	2.9424
83.800003	92.747	2.6421
85.000000	92.722	2.4053
86.199997	92.702	2.1735
87.500000	92.684	1.8771
88.500000	92.667	1.6342
90.000000	92.641	1.2941
91.199997	92.620	1.0485
92.500000	92.597	0.8127
93.800003	92.574	0.6093
95.000000	92.551	0.4410
96.199997	92.529	0.2791
97.500000	92.506	0.0975
98.800003	92.485	-0.0953
100.000000	92.468	-0.2747
101.500000	92.449	-0.4791
103.000000	92.430	-0.6554
104.400002	92.412	-0.8053
106.000000	92.392	-0.9755
107.500000	92.378	-1.1583
109.000000	92.366	-1.3809
110.599998	92.346	-1.6361
112.000000	92.317	-1.8342
113.800003	92.267	-2.0507
115.000000	92.232	-2.1854
117.199997	92.188	-2.3744
118.000000	92.182	-2.4020
120.599998	92.177	-2.3419
122.000000	92.140	-2.3036
124.099998	91.980	-2.3978
125.000000	91.876	-2.4865
126.500000	91.686	-2.5682
128.000000	91.553	-2.4299
131.500000	91.703	-2.4945
132.000000	91.745	-2.6206
134.000000	91.873	-3.0922
136.000000	91.919	-3.3152
138.000000	91.917	-3.3743
140.000000	91.898	-3.4221
143.000000	91.848	-3.4878
145.000000	91.798	-3.5376
147.500000	91.736	-3.6743
150.000000	91.693	-3.7941
152.500000	91.669	-3.7570
155.000000	91.653	-3.6678
157.500000	91.632	-3.7313
160.000000	91.607	-3.9104
162.500000	91.584	-4.1060
165.000000	91.559	-4.2917
167.500000	91.529	-4.4510
170.000000	91.500	-4.5579
172.500000	91.475	-4.6011
175.000000	91.450	-4.6038
177.500000	91.424	-4.6106
180.000000	91.394	-4.6511
182.500000	91.363	-4.7186
185.000000	91.332	-4.7903
187.500000	91.301	-4.8503
190.000000	91.270	-4.8992
192.500000	91.237	-4.9528
195.000000	91.204	-5.0140
197.500000	91.169	-5.0623
200.000000	91.134	-5.0793
203.000000	91.095	-5.0637
206.000000	91.059	-5.0436
209.000000	91.024	-5.0435
212.000000	90.986	-5.0496
214.000000	90.958	-5.0427
218.000000	90.901	-4.9756
220.000000	90.874	-4.9171
224.000000	90.827	-4.7932
227.000000	90.798	-4.7218
230.000000	90.770	-4.6664
233.000000	90.741	-4.6156
236.000000	90.712	-4.5676
240.000000	90.671	-4.5106
243.000000	90.637	-4.4666
247.000000	90.587	-4.3822
250.000000	90.548	-4.2808
254.000000	90.499	-4.0881
258.000000	90.462	-3.8756
262.000000	90.435	-3.7114
265.000000	90.413	-3.6204
269.000000	90.380	-3.4943
272.000000	90.353	-3.3730
276.000000	90.318	-3.1779
280.000000	90.287	-2.9671
285.000000	90.258	-2.7214
290.000000	90.237	-2.5576
295.000000	90.210	-2.4805
300.000000	90.171	-2.4005
304.000000	90.134	-2.2963
307.000000	90.108	-2.1992
311.000000	90.073	-2.0588
315.000000	90.037	-1.9141
320.000000	89.991	-1.7113
325.000000	89.945	-1.4643
330.000000	89.906	-1.1892
335.000000	89.871	-0.9175
340.000000	89.838	-0.6655
345.000000	89.805	-0.4249
350.000000	89.770	-0.1778
355.000000	89.735	0.0817
360.000000	89.702	0.3500
365.000000	89.670	0.6254
370.000000	89.640	0.9080
375.000000	89.611	1.1968
382.000000	89.571	1.6066
387.000000	89.545	1.9018
395.000000	89.504	2.3831
400.000000	89.481	2.6876
406.000000	89.455	3.0486
412.000000	89.429	3.4039
418.000000	89.401	3.7700
425.000000	89.371	4.2329
431.000000	89.350	4.6510
437.000000	89.335	5.0617
444.000000	89.324	5.5149
450.000000	89.318	5.8671
455.000000	89.314	6.1186
462.000000	89.300	6.4213
468.000000	89.280	6.6884
475.000000	89.251	7.0476
482.000000	89.224	7.4385
487.000000	89.205	7.7230
494.000000	89.177	8.1440
500.000000	89.155	8.5381
508.000000	89.132	9.0765
515.000000	89.114	9.5294
522.000000	89.096	9.9757
530.000000	89.075	10.5082
538.000000	89.056	11.0643
545.000000	89.044	11.5538
552.000000	89.034	12.0427
560.000000	89.026	12.5923
570.000000	89.016	13.2574
580.000000	89.005	13.9225
590.000000	88.993	14.6061
600.000000	88.983	15.3184
608.000000	88.979	15.8959
615.000000	88.977	16.3967
622.000000	88.974	16.9037
630.000000	88.971	17.5116
640.000000	88.975	18.3070
650.000000	88.989	19.1115
660.000000	89.014	19.8958
670.000000	89.048	20.6024
680.000000	89.078	21.2279
690.000000	89.099	21.8312
700.000000	89.115	22.4584
710.000000	89.131	23.1188
720.000000	89.151	23.7936
730.000000	89.172	24.4720
740.000000	89.194	25.1566
750.000000	89.219	25.8499
762.000000	89.252	26.6937
775.000000	89.292	27.6170
788.000000	89.337	28.5450
800.000000	89.383	29.4177
812.000000	89.439	30.3026
825.000000	89.514	31.2130
838.000000	89.593	32.0124
850.000000	89.659	32.6805
862.000000	89.717	33.3406
875.000000	89.776	34.0807
885.000000	89.820	34.6707
900.000000	89.889	35.5728
912.000000	89.945	36.3117
925.000000	90.010	37.1287
938.000000	90.078	37.9456
950.000000	90.144	38.6888
962.000000	90.208	39.4290
975.000000	90.277	40.2451
988.000000	90.344	41.0912
1000.000000	90.406	41.9203
1015.000000	90.490	43.0688
1030.000000	90.594	44.3504
1044.000000	90.724	45.5962
1060.000000	90.910	46.9462
1075.000000	91.111	48.0612
1090.000000	91.328	48.9929
1106.000000	91.565	49.7632
1120.000000	91.766	50.2632
1138.000000	92.009	50.7326
1150.000000	92.159	50.9788
1172.000000	92.415	51.3769
1180.000000	92.505	51.5191
1206.000000	92.796	51.9393
1220.000000	92.948	52.0929
1241.000000	93.161	52.2449
1250.000000	93.245	52.3034
1265.000000	93.380	52.4124
1280.000000	93.509	52.5424
1315.000000	93.803	52.9222
1320.000000	93.845	52.9801
1340.000000	94.011	53.2115
1360.000000	94.173	53.4556
1380.000000	94.333	53.7419
1400.000000	94.500	54.0891
1430.000000	94.776	54.6157
1450.000000	94.970	54.8721
1475.000000	95.210	55.0970
1500.000000	95.445	55.2734
1525.000000	95.677	55.4428
1550.000000	95.912	55.6322
1575.000000	96.162	55.8248
1600.000000	96.427	55.9255
1625.000000	96.695	55.8787
1650.000000	96.956	55.7276
1675.000000	97.212	55.5209
1700.000000	97.467	55.2701
1725.000000	97.719	54.9659
1750.000000	97.968	54.6251
1775.000000	98.218	54.2826
1800.000000	98.479	53.9256
1825.000000	98.752	53.4771
1850.000000	99.029	52.8889
1875.000000	99.303	52.1683
1900.000000	99.571	51.3429
1925.000000	99.834	50.4402
1950.000000	100.099	49.4637
1975.000000	100.368	48.3686
2000.000000	100.634	47.1001
2030.000000	100.936	45.3388
2060.000000	101.213	43.3573
2090.000000	101.459	41.1931
2120.000000	101.671	38.8792
2140.000000	101.791	37.2844
2180.000000	101.987	34.0467
2200.000000	102.067	32.4001
2240.000000	102.185	29.0179
2270.000000	102.229	26.4389
2300.000000	102.232	23.8994
2330.000000	102.202	21.4625
2360.000000	102.146	19.1354
2400.000000	102.038	16.1564
2430.000000	101.929	14.0159
2470.000000	101.744	11.3317
2500.000000	101.578	9.4757
2540.000000	101.325	7.2724
2580.000000	101.051	5.4119
2620.000000	100.770	3.8265
2650.000000	100.555	2.7822
2690.000000	100.259	1.5964
2720.000000	100.034	0.8801
2760.000000	99.738	0.1263
2800.000000	99.449	-0.4612
2850.000000	99.088	-0.9899
2900.000000	98.719	-1.2323
2950.000000	98.348	-1.0631
3000.000000	98.001	-0.4595
3040.000000	97.758	0.2501
3070.000000	97.598	0.8668
3110.000000	97.416	1.7449
3150.000000	97.270	2.5995
3200.000000	97.119	3.5192
3250.000000	96.972	4.2791
3300.000000	96.806	5.0234
3350.000000	96.624	5.9388
3400.000000	96.444	7.1041
3450.000000	96.280	8.5095
3500.000000	96.144	10.1520
3550.000000	96.053	11.9841
3600.000000	96.014	13.8895
3650.000000	96.025	15.7535
3700.000000	96.073	17.5235
3750.000000	96.151	19.2027
3820.000000	96.306	21.3887
3870.000000	96.442	22.8453
3950.000000	96.714	25.0588
4000.000000	96.927	26.3191
4060.000000	97.224	27.6057
4120.000000	97.557	28.5945
4180.000000	97.922	29.2423
4250.000000	98.373	29.4864
4310.000000	98.770	29.2317
4370.000000	99.167	28.5103
4440.000000	99.609	26.9944
4500.000000	99.942	25.1131
4550.000000	100.171	23.1937
4620.000000	100.402	20.1071
4680.000000	100.506	17.2719
4750.000000	100.526	13.9830
4820.000000	100.452	10.8688
4870.000000	100.349	8.8039
4940.000000	100.145	6.2092
5000.000000	99.921	4.3107
5080.000000	99.571	2.3309
5150.000000	99.238	1.1698
5220.000000	98.906	0.5004
5300.000000	98.551	0.2111
5380.000000	98.234	0.2925
5450.000000	97.990	0.5851
5520.000000	97.777	1.0540
5600.000000	97.580	1.7480
5700.000000	97.413	2.6689
5800.000000	97.326	3.4252
5900.000000	97.301	3.8403
6000.000000	97.313	3.7207
6080.000000	97.312	3.1357
6150.000000	97.278	2.3226
6220.000000	97.201	1.3141
6300.000000	97.048	0.0370
6400.000000	96.736	-1.4373
6500.000000	96.291	-2.2866
6600.000000	95.757	-2.0846
6700.000000	95.204	-0.6430
6800.000000	94.710	1.9908
6900.000000	94.351	5.5555
7000.000000	94.182	9.6680
7100.000000	94.226	13.9582
7200.000000	94.490	18.1153
7300.000000	94.971	21.8174
7400.000000	95.649	24.6970
7500.000000	96.481	26.3876
7620.000000	97.589	26.3546
7750.000000	98.759	23.1317
7880.000000	99.672	16.2974
8000.000000	100.115	7.5541
8120.000000	100.104	-1.8895
8250.000000	99.630	-10.9619
8380.000000	98.827	-17.5348
8500.000000	97.970	-21.2031
8620.000000	97.154	-23.1173
8750.000000	96.430	-24.0607
8850.000000	96.022	-24.4805
9000.000000	95.650	-25.4418
9120.000000	95.511	-27.1525
9250.000000	95.422	-30.4064
9380.000000	95.279	-35.2478
9500.000000	94.994	-40.9146
9620.000000	94.490	-47.1007
9750.000000	93.665	-53.3887
9880.000000	92.568	-58.3650
10000.000000	91.368	-61.3537
10150.000000	89.720	-62.7605
10300.000000	88.032	-61.8991
10440.000000	86.516	-59.5454
10600.000000	84.931	-55.5109
10750.000000	83.632	-50.8629
10900.000000	82.530	-45.7389
11060.000000	81.575	-40.0371
11200.000000	80.920	-35.0930
11380.000000	80.309	-29.0715
11500.000000	80.037	-25.4081
11720.000000	79.807	-19.9158
11800.000000	79.805	-18.4675
12060.000000	80.011	-16.9154
12200.000000	80.150	-18.8446
12410.000000	80.111	-26.2708
12500.000000	79.917	-31.0005
12650.000000	79.268	-40.2722
12800.000000	78.177	-50.5833
13150.000000	74.044	-81.4142
13200.000000	73.296	-87.5295
13400.000000	70.099	-118.8907
13600.000000	67.621	-158.9099
13800.000000	67.892	163.6302
14000.000000	69.970	137.9479
14300.000000	73.095	118.3447
14500.000000	74.791	111.0435
14750.000000	76.502	102.9218
15000.000000	77.720	93.4619
15250.000000	78.357	82.4467
15500.000000	78.420	71.4835
15750.000000	78.100	62.1530
16000.000000	77.725	54.0743
16250.000000	77.524	44.6013
16500.000000	77.328	30.6298
16750.000000	76.654	12.0082
17000.000000	75.140	-7.3096
17250.000000	72.724	-23.3855
17500.000000	69.497	-39.2261
17750.000000	65.681	-69.9699
18000.000000	61.595	-131.0293
18250.000000	57.560	150.4807
18500.000000	53.828	91.3281
18750.000000	50.545	65.9482
19000.000000	47.741	63.7454
19250.000000	45.344	72.3755
19500.000000	43.234	85.4041
19750.000000	41.303	100.5662
20000.000000	39.483	117.3835
