* Measurement data measured by REW V5.20.4
* Source: Mic in at front panel (Pink) (Realtek(R) Audio), MICROPHONE (Master Volume), L, volume: 0.250
* Format: 256k Log Swept Sine, 1 sweep at -12.0 dBFS with no timing reference
* Dated: Jul 26, 2022 1:27:02 AM
* REW Settings:
*  C-weighting compensation: Off
*  Target level: 75.0 dB
* Note: Little Q R
* Measurement: Little Q R
* Smoothing: 1/12 octave
* Frequency Step: 1/48 octave
* Start Frequency: 20.000 Hz
*
* Freq(Hz)	SPL(dB)	Phase(degrees)
20.000000	104.899	-168.1386
20.299999	104.894	-168.6509
20.600000	104.884	-169.1550
20.900000	104.870	-169.6517
21.200001	104.857	-170.1413
21.400000	104.848	-170.4637
21.799999	104.835	-171.0980
22.000000	104.830	-171.4095
22.400000	104.824	-172.0209
22.700001	104.820	-172.4691
23.000000	104.818	-172.9091
23.299999	104.816	-173.3418
23.600000	104.814	-173.7681
24.000000	104.812	-174.3270
24.299999	104.808	-174.7390
24.700001	104.801	-175.2783
25.000000	104.793	-175.6750
25.400000	104.780	-176.1941
25.799999	104.766	-176.7033
26.200001	104.752	-177.2039
26.500000	104.741	-177.5737
26.900000	104.723	-178.0590
27.200001	104.708	-178.4168
27.600000	104.686	-178.8854
28.000000	104.664	-179.3453
28.500000	104.638	-179.9094
29.000000	104.614	179.5373
29.500000	104.592	178.9949
30.000000	104.570	178.4644
30.400000	104.554	178.0486
30.700001	104.542	177.7413
31.100000	104.528	177.3369
31.500000	104.514	176.9373
32.000000	104.494	176.4431
32.500000	104.470	175.9539
33.000000	104.445	175.4698
33.500000	104.421	174.9913
34.000000	104.398	174.5191
34.500000	104.377	174.0541
35.000000	104.356	173.5975
35.500000	104.337	173.1501
36.000000	104.320	172.7122
36.500000	104.304	172.2838
37.000000	104.287	171.8646
37.500000	104.265	171.4544
38.200001	104.226	170.8943
38.700001	104.192	170.5037
39.500000	104.131	169.8943
40.000000	104.094	169.5230
40.599998	104.054	169.0863
41.200001	104.018	168.6579
41.799999	103.985	168.2367
42.500000	103.950	167.7545
43.099998	103.922	167.3496
43.700001	103.894	166.9526
44.400002	103.860	166.4989
45.000000	103.829	166.1177
45.500000	103.802	165.8055
46.200001	103.762	165.3768
46.799999	103.727	165.0166
47.500000	103.683	164.6050
48.200001	103.635	164.2029
48.700001	103.598	163.9219
49.400002	103.546	163.5371
50.000000	103.505	163.2156
50.799999	103.456	162.7976
51.500000	103.419	162.4407
52.200001	103.383	162.0916
53.000000	103.339	161.7033
53.799999	103.295	161.3290
54.500000	103.258	161.0142
55.200001	103.225	160.7081
56.000000	103.190	160.3596
57.000000	103.145	159.9128
58.000000	103.094	159.4557
59.000000	103.038	158.9999
60.000000	102.978	158.5528
60.799999	102.928	158.2033
61.500000	102.885	157.9034
62.200001	102.843	157.6088
63.000000	102.798	157.2795
64.000000	102.743	156.8824
65.000000	102.687	156.5036
66.000000	102.632	156.1423
67.000000	102.576	155.7964
68.000000	102.520	155.4631
69.000000	102.460	155.1391
70.000000	102.394	154.8271
71.000000	102.323	154.5382
72.000000	102.254	154.2825
73.000000	102.196	154.0367
74.000000	102.149	153.7576
75.000000	102.105	153.4449
76.199997	102.052	153.0694
77.500000	101.994	152.6728
78.800003	101.937	152.2755
80.000000	101.882	151.9098
81.199997	101.825	151.5395
82.500000	101.759	151.1280
83.800003	101.687	150.7133
85.000000	101.616	150.3434
86.199997	101.541	150.0023
87.500000	101.457	149.6723
88.500000	101.391	149.4447
90.000000	101.295	149.1417
91.199997	101.223	148.9279
92.500000	101.150	148.7102
93.800003	101.082	148.4938
95.000000	101.020	148.2968
96.199997	100.958	148.1055
97.500000	100.887	147.9049
98.800003	100.814	147.7108
100.000000	100.745	147.5382
101.500000	100.661	147.3362
103.000000	100.584	147.1529
104.400002	100.518	146.9920
106.000000	100.445	146.8084
107.500000	100.374	146.6290
109.000000	100.300	146.4338
110.599998	100.218	146.2012
112.000000	100.146	145.9809
113.800003	100.050	145.6973
115.000000	99.984	145.5276
117.199997	99.857	145.3028
118.000000	99.811	145.2520
120.599998	99.672	145.1570
122.000000	99.607	145.1158
124.099998	99.518	145.0365
125.000000	99.481	144.9954
126.500000	99.418	144.9203
128.000000	99.354	144.8398
131.500000	99.195	144.6426
132.000000	99.172	144.6144
134.000000	99.080	144.5057
136.000000	98.988	144.4069
138.000000	98.895	144.3099
140.000000	98.801	144.2094
143.000000	98.668	144.0775
145.000000	98.583	144.0161
147.500000	98.471	143.9634
150.000000	98.353	143.9286
152.500000	98.236	143.9251
155.000000	98.128	143.9663
157.500000	98.030	144.0359
160.000000	97.937	144.0993
162.500000	97.842	144.1451
165.000000	97.737	144.1867
167.500000	97.612	144.2458
170.000000	97.466	144.3520
172.500000	97.307	144.5281
175.000000	97.147	144.7758
177.500000	96.994	145.0878
180.000000	96.856	145.4678
182.500000	96.739	145.9319
185.000000	96.642	146.5019
187.500000	96.560	147.1989
190.000000	96.494	148.0390
192.500000	96.453	149.0117
195.000000	96.450	150.0602
197.500000	96.492	151.0776
200.000000	96.580	151.9260
203.000000	96.730	152.5328
206.000000	96.891	152.5616
209.000000	97.018	152.0464
212.000000	97.082	151.1880
214.000000	97.088	150.5524
218.000000	97.028	149.3898
220.000000	96.973	148.9171
224.000000	96.842	148.1857
227.000000	96.739	147.7863
230.000000	96.636	147.4938
233.000000	96.534	147.2928
236.000000	96.432	147.1584
240.000000	96.295	147.0439
243.000000	96.190	146.9997
247.000000	96.051	147.0109
250.000000	95.949	147.0825
254.000000	95.823	147.2619
258.000000	95.712	147.4882
262.000000	95.611	147.6856
265.000000	95.535	147.8080
269.000000	95.430	147.9797
272.000000	95.351	148.1376
276.000000	95.248	148.3889
280.000000	95.153	148.6671
285.000000	95.050	149.0095
290.000000	94.959	149.2845
295.000000	94.866	149.4881
300.000000	94.763	149.7009
304.000000	94.680	149.9133
307.000000	94.620	150.0941
311.000000	94.540	150.3512
315.000000	94.460	150.6190
320.000000	94.358	150.9791
325.000000	94.263	151.3740
330.000000	94.177	151.7753
335.000000	94.095	152.1508
340.000000	94.013	152.4928
345.000000	93.930	152.8194
350.000000	93.848	153.1545
355.000000	93.771	153.5057
360.000000	93.695	153.8692
365.000000	93.616	154.2407
370.000000	93.536	154.6184
375.000000	93.458	155.0031
382.000000	93.355	155.5529
387.000000	93.286	155.9522
395.000000	93.178	156.6019
400.000000	93.111	157.0127
406.000000	93.033	157.5017
412.000000	92.954	157.9834
418.000000	92.876	158.4744
425.000000	92.790	159.0831
431.000000	92.724	159.6275
437.000000	92.665	160.1667
444.000000	92.601	160.7715
450.000000	92.551	161.2532
455.000000	92.510	161.6121
462.000000	92.447	162.0634
468.000000	92.385	162.4568
475.000000	92.312	162.9632
482.000000	92.241	163.5007
487.000000	92.189	163.8892
494.000000	92.116	164.4542
500.000000	92.055	164.9708
508.000000	91.982	165.6735
515.000000	91.923	166.2717
522.000000	91.864	166.8639
530.000000	91.794	167.5619
538.000000	91.730	168.2831
545.000000	91.678	168.9175
552.000000	91.629	169.5512
560.000000	91.577	170.2650
570.000000	91.515	171.1321
580.000000	91.452	171.9980
590.000000	91.386	172.8825
600.000000	91.323	173.7963
608.000000	91.280	174.5359
615.000000	91.245	175.1789
622.000000	91.211	175.8278
630.000000	91.173	176.5962
640.000000	91.131	177.5895
650.000000	91.099	178.5900
660.000000	91.081	179.5703
670.000000	91.076	-179.5273
680.000000	91.068	-178.7071
690.000000	91.052	-177.9098
700.000000	91.030	-177.0898
710.000000	91.008	-176.2381
720.000000	90.991	-175.3740
730.000000	90.977	-174.5081
740.000000	90.966	-173.6376
750.000000	90.957	-172.7600
762.000000	90.949	-171.6974
775.000000	90.947	-170.5399
788.000000	90.953	-169.3810
800.000000	90.967	-168.3000
812.000000	90.993	-167.2122
825.000000	91.037	-166.0882
838.000000	91.087	-165.0828
850.000000	91.127	-164.2330
862.000000	91.160	-163.4016
875.000000	91.191	-162.4899
885.000000	91.218	-161.7795
900.000000	91.262	-160.7190
912.000000	91.301	-159.8755
925.000000	91.349	-158.9719
938.000000	91.402	-158.0999
950.000000	91.455	-157.3354
962.000000	91.508	-156.6033
975.000000	91.567	-155.8327
988.000000	91.626	-155.0785
1000.000000	91.681	-154.3900
1015.000000	91.753	-153.5236
1030.000000	91.832	-152.6695
1044.000000	91.916	-151.9418
1060.000000	92.014	-151.2446
1075.000000	92.096	-150.6841
1090.000000	92.168	-150.1477
1106.000000	92.240	-149.5649
1120.000000	92.301	-149.0310
1138.000000	92.376	-148.3008
1150.000000	92.427	-147.7919
1172.000000	92.527	-146.8459
1180.000000	92.567	-146.5065
1206.000000	92.716	-145.5016
1220.000000	92.800	-145.0686
1241.000000	92.913	-144.5255
1250.000000	92.955	-144.3043
1265.000000	93.017	-143.9252
1280.000000	93.072	-143.5228
1315.000000	93.196	-142.4974
1320.000000	93.214	-142.3476
1340.000000	93.287	-141.7560
1360.000000	93.357	-141.1670
1380.000000	93.423	-140.5469
1400.000000	93.491	-139.8626
1430.000000	93.615	-138.7857
1450.000000	93.707	-138.1116
1475.000000	93.823	-137.2868
1500.000000	93.946	-136.4037
1525.000000	94.083	-135.3993
1550.000000	94.240	-134.2405
1575.000000	94.413	-132.9674
1600.000000	94.573	-131.7199
1625.000000	94.674	-130.5907
1650.000000	94.696	-129.5421
1675.000000	94.664	-128.4909
1700.000000	94.626	-127.3562
1725.000000	94.631	-126.0653
1750.000000	94.717	-124.5609
1775.000000	94.911	-122.8713
1800.000000	95.220	-121.1981
1825.000000	95.616	-119.8699
1850.000000	96.042	-119.1153
1875.000000	96.446	-118.9299
1900.000000	96.797	-119.1220
1925.000000	97.093	-119.4356
1950.000000	97.350	-119.6766
1975.000000	97.590	-119.7860
2000.000000	97.831	-119.8022
2030.000000	98.128	-119.7796
2060.000000	98.438	-119.8048
2090.000000	98.753	-119.9702
2120.000000	99.062	-120.3211
2140.000000	99.260	-120.6439
2180.000000	99.638	-121.4298
2200.000000	99.821	-121.8879
2240.000000	100.170	-122.9390
2270.000000	100.412	-123.8041
2300.000000	100.639	-124.6803
2330.000000	100.860	-125.5475
2360.000000	101.082	-126.4494
2400.000000	101.375	-127.8197
2430.000000	101.581	-128.9898
2470.000000	101.826	-130.6763
2500.000000	101.987	-131.9804
2540.000000	102.178	-133.6877
2580.000000	102.362	-135.3545
2620.000000	102.548	-137.1298
2650.000000	102.679	-138.6118
2690.000000	102.823	-140.7748
2720.000000	102.902	-142.4782
2760.000000	102.967	-144.7966
2800.000000	102.987	-147.1321
2850.000000	102.948	-149.9821
2900.000000	102.839	-152.6212
2950.000000	102.671	-154.8992
3000.000000	102.470	-156.7838
3040.000000	102.299	-158.0584
3070.000000	102.168	-158.8847
3110.000000	101.995	-159.8032
3150.000000	101.831	-160.5348
3200.000000	101.647	-161.2733
3250.000000	101.479	-161.8965
3300.000000	101.313	-162.4204
3350.000000	101.143	-162.7945
3400.000000	100.971	-163.0062
3450.000000	100.794	-163.0722
3500.000000	100.613	-162.9713
3550.000000	100.438	-162.7097
3600.000000	100.278	-162.3508
3650.000000	100.133	-161.9483
3700.000000	100.000	-161.4971
3750.000000	99.881	-160.9553
3820.000000	99.748	-160.0388
3870.000000	99.679	-159.2725
3950.000000	99.617	-157.8239
4000.000000	99.609	-156.8380
4060.000000	99.619	-155.6659
4120.000000	99.634	-154.5230
4180.000000	99.644	-153.3886
4250.000000	99.648	-152.0571
4310.000000	99.653	-150.8663
4370.000000	99.676	-149.6408
4440.000000	99.739	-148.2727
4500.000000	99.819	-147.2163
4550.000000	99.900	-146.4200
4620.000000	100.028	-145.4134
4680.000000	100.149	-144.5934
4750.000000	100.313	-143.6121
4820.000000	100.518	-142.6193
4870.000000	100.694	-141.9414
4940.000000	100.983	-141.0776
5000.000000	101.266	-140.4511
5080.000000	101.687	-139.8069
5150.000000	102.094	-139.4413
5220.000000	102.535	-139.3411
5300.000000	103.063	-139.6839
5380.000000	103.592	-140.6169
5450.000000	104.033	-141.9463
5520.000000	104.444	-143.7246
5600.000000	104.877	-146.2915
5700.000000	105.356	-150.3802
5800.000000	105.726	-155.5139
5900.000000	105.927	-161.4948
6000.000000	105.922	-167.7844
6080.000000	105.771	-172.6341
6150.000000	105.545	-176.5323
6220.000000	105.247	-179.9905
6300.000000	104.841	176.6915
6400.000000	104.275	173.5621
6500.000000	103.695	171.4898
6600.000000	103.145	170.2744
6700.000000	102.649	169.7124
6800.000000	102.219	169.6619
6900.000000	101.868	169.9843
7000.000000	101.602	170.5124
7100.000000	101.419	171.0967
7200.000000	101.314	171.6353
7300.000000	101.291	172.0225
7400.000000	101.351	172.1112
7500.000000	101.484	171.7497
7620.000000	101.713	170.5429
7750.000000	102.004	167.9989
7880.000000	102.267	163.7953
8000.000000	102.400	158.3105
8120.000000	102.353	151.5028
8250.000000	102.034	143.2404
8380.000000	101.393	135.0280
8500.000000	100.527	128.4043
8620.000000	99.456	123.2406
8750.000000	98.153	119.4498
8850.000000	97.102	117.7457
9000.000000	95.532	116.8798
9120.000000	94.328	117.3292
9250.000000	93.100	118.6698
9380.000000	91.955	120.7050
9500.000000	90.977	123.0478
9620.000000	90.073	125.7211
9750.000000	89.167	128.9210
9880.000000	88.336	132.3749
10000.000000	87.632	135.7273
10150.000000	86.830	140.0987
10300.000000	86.110	144.6399
10440.000000	85.507	148.9782
10600.000000	84.894	154.0294
10750.000000	84.385	158.8325
10900.000000	83.932	163.6633
11060.000000	83.518	168.8392
11200.000000	83.224	173.3673
11380.000000	82.934	179.1548
11500.000000	82.791	-177.0129
11720.000000	82.631	-170.0836
11800.000000	82.605	-167.6014
12060.000000	82.648	-159.7099
12200.000000	82.757	-155.6067
12410.000000	83.036	-149.6859
12500.000000	83.198	-147.2531
12650.000000	83.521	-143.3631
12800.000000	83.916	-139.7115
13150.000000	85.120	-132.4454
13200.000000	85.323	-131.5896
13400.000000	86.202	-128.7695
13600.000000	87.162	-127.1393
13800.000000	88.181	-127.0615
14000.000000	89.241	-128.9171
14300.000000	90.773	-135.9256
14500.000000	91.607	-143.3751
14750.000000	92.284	-154.9317
15000.000000	92.502	-167.4678
15250.000000	92.297	-179.7434
15500.000000	91.732	168.4882
15750.000000	90.816	156.8825
16000.000000	89.529	145.3860
16250.000000	87.881	134.7191
16500.000000	85.940	126.0502
16750.000000	83.806	120.2725
17000.000000	81.565	117.6027
17250.000000	79.290	117.7066
17500.000000	77.056	120.0312
17750.000000	74.928	124.0375
18000.000000	72.938	129.2935
18250.000000	71.101	135.4871
18500.000000	69.416	142.4063
18750.000000	67.858	149.9091
19000.000000	66.398	157.8990
19250.000000	65.018	166.3036
19500.000000	63.714	175.0438
19750.000000	62.491	-176.0047
20000.000000	61.352	-167.0138
