* Measurement data measured by REW V5.20
* Source: Mic in at front panel (Pink) (Realtek(R) Audio), MICROPHONE (Master Volume), L, volume: 0.250
* Format: 256k Log Swept Sine, 1 sweep at -12.0 dBFS with no timing reference
* Dated: Nov 6, 2021 12:19:00 PM
* REW Settings:
*  C-weighting compensation: Off
*  Target level: 75.0 dB
* Note: KBEAR Robin
* Measurement: edx L Nov 6
* Smoothing: 1/12 octave
* Frequency Step: 1/48 octave
* Start Frequency: 20.000 Hz
*
* Freq(Hz)	SPL(dB)	Phase(degrees)
20.000000	107.3	45.5471
20.299999	107.3	44.8408
20.600000	107.4	44.1491
20.900000	107.4	43.4722
21.200001	107.4	42.8105
21.400000	107.5	42.3778
21.799999	107.5	41.5307
22.000000	107.5	41.1148
22.400000	107.6	40.2943
22.700001	107.6	39.6855
23.000000	107.6	39.0806
23.299999	107.7	38.4800
23.600000	107.7	37.8857
24.000000	107.7	37.1067
24.299999	107.8	36.5350
24.700001	107.8	35.7906
25.000000	107.8	35.2448
25.400000	107.8	34.5310
25.799999	107.9	33.8307
26.200001	107.9	33.1438
26.500000	107.9	32.6382
26.900000	107.9	31.9780
27.200001	107.9	31.4934
27.600000	108.0	30.8604
28.000000	108.0	30.2404
28.500000	108.0	29.4814
29.000000	108.0	28.7404
29.500000	108.0	28.0182
30.000000	108.1	27.3140
30.400000	108.1	26.7615
30.700001	108.1	26.3523
31.100000	108.1	25.8131
31.500000	108.1	25.2811
32.000000	108.1	24.6265
32.500000	108.2	23.9836
33.000000	108.2	23.3513
33.500000	108.2	22.7286
34.000000	108.2	22.1157
34.500000	108.2	21.5137
35.000000	108.2	20.9233
35.500000	108.2	20.3450
36.000000	108.2	19.7785
36.500000	108.2	19.2240
37.000000	108.2	18.6816
37.500000	108.2	18.1510
38.200001	108.2	17.4263
38.700001	108.3	16.9205
39.500000	108.3	16.1307
40.000000	108.3	15.6493
40.599998	108.3	15.0833
41.200001	108.3	14.5289
41.799999	108.3	13.9851
42.500000	108.3	13.3635
43.099998	108.3	12.8413
43.700001	108.2	12.3282
44.400002	108.2	11.7411
45.000000	108.2	11.2477
45.500000	108.2	10.8436
46.200001	108.2	10.2889
46.799999	108.2	9.8231
47.500000	108.2	9.2905
48.200001	108.2	8.7687
48.700001	108.2	8.4031
49.400002	108.2	7.9036
50.000000	108.2	7.4886
50.799999	108.2	6.9547
51.500000	108.2	6.5029
52.200001	108.1	6.0613
53.000000	108.1	5.5669
53.799999	108.1	5.0851
54.500000	108.1	4.6742
55.200001	108.1	4.2706
56.000000	108.1	3.8161
57.000000	108.1	3.2612
58.000000	108.0	2.7321
59.000000	108.0	2.2477
60.000000	108.0	1.8271
60.799999	108.0	1.5337
61.500000	108.0	1.2955
62.200001	108.0	1.0618
63.000000	108.0	0.7870
64.000000	108.0	0.4025
65.000000	108.0	-0.0799
66.000000	108.0	-0.6704
67.000000	108.0	-1.3041
68.000000	108.0	-1.9243
69.000000	108.0	-2.5204
70.000000	108.0	-3.0920
71.000000	107.9	-3.6341
72.000000	107.9	-4.1447
73.000000	107.9	-4.6287
74.000000	107.9	-5.0917
75.000000	107.9	-5.5389
76.199997	107.8	-6.0649
77.500000	107.8	-6.6340
78.800003	107.8	-7.2090
80.000000	107.7	-7.7418
81.199997	107.7	-8.2761
82.500000	107.7	-8.8680
83.800003	107.6	-9.4647
85.000000	107.6	-9.9941
86.199997	107.6	-10.4867
87.500000	107.5	-10.9774
88.500000	107.5	-11.3307
90.000000	107.4	-11.8351
91.199997	107.4	-12.2247
92.500000	107.4	-12.6373
93.800003	107.3	-13.0423
95.000000	107.3	-13.4104
96.199997	107.2	-13.7736
97.500000	107.2	-14.1611
98.800003	107.2	-14.5402
100.000000	107.1	-14.8794
101.500000	107.1	-15.2850
103.000000	107.0	-15.6710
104.400002	107.0	-16.0205
106.000000	106.9	-16.4185
107.500000	106.9	-16.7979
109.000000	106.8	-17.1866
110.599998	106.8	-17.6118
112.000000	106.7	-17.9882
113.800003	106.7	-18.4594
115.000000	106.6	-18.7465
117.199997	106.5	-19.1774
118.000000	106.5	-19.3029
120.599998	106.4	-19.6631
122.000000	106.3	-19.8683
124.099998	106.3	-20.1918
125.000000	106.3	-20.3272
126.500000	106.2	-20.5425
128.000000	106.2	-20.7460
131.500000	106.1	-21.2139
132.000000	106.1	-21.2850
134.000000	106.0	-21.5874
136.000000	106.0	-21.9125
138.000000	105.9	-22.2451
140.000000	105.8	-22.5709
143.000000	105.7	-23.0262
145.000000	105.7	-23.3024
147.500000	105.6	-23.6105
150.000000	105.5	-23.8557
152.500000	105.4	-24.0056
155.000000	105.3	-24.0420
157.500000	105.2	-23.9976
160.000000	105.1	-23.9357
162.500000	105.1	-23.9095
165.000000	105.1	-23.9532
167.500000	105.0	-24.0768
170.000000	105.0	-24.2681
172.500000	105.0	-24.5182
175.000000	104.9	-24.8256
177.500000	104.9	-25.1786
180.000000	104.9	-25.5542
182.500000	104.8	-25.9296
185.000000	104.7	-26.2885
187.500000	104.7	-26.6194
190.000000	104.6	-26.9185
192.500000	104.5	-27.1918
195.000000	104.5	-27.4445
197.500000	104.4	-27.6677
200.000000	104.3	-27.8488
203.000000	104.2	-28.0134
206.000000	104.2	-28.1556
209.000000	104.1	-28.3173
212.000000	104.0	-28.5045
214.000000	104.0	-28.6270
218.000000	103.9	-28.8129
220.000000	103.8	-28.8719
224.000000	103.7	-28.9653
227.000000	103.6	-29.0431
230.000000	103.6	-29.1306
233.000000	103.5	-29.2224
236.000000	103.4	-29.3174
240.000000	103.3	-29.4515
243.000000	103.2	-29.5507
247.000000	103.1	-29.6547
250.000000	103.1	-29.6929
254.000000	103.0	-29.6802
258.000000	102.9	-29.6362
262.000000	102.8	-29.6315
265.000000	102.7	-29.6580
269.000000	102.6	-29.6884
272.000000	102.6	-29.6835
276.000000	102.5	-29.6373
280.000000	102.4	-29.5634
285.000000	102.3	-29.4721
290.000000	102.2	-29.4489
295.000000	102.1	-29.5073
300.000000	102.0	-29.5607
304.000000	102.0	-29.5606
307.000000	101.9	-29.5397
311.000000	101.8	-29.4982
315.000000	101.7	-29.4482
320.000000	101.6	-29.3588
325.000000	101.5	-29.2216
330.000000	101.4	-29.0527
335.000000	101.3	-28.8815
340.000000	101.2	-28.7225
345.000000	101.1	-28.5686
350.000000	101.0	-28.4032
355.000000	101.0	-28.2210
360.000000	100.9	-28.0254
365.000000	100.8	-27.8196
370.000000	100.7	-27.6044
375.000000	100.6	-27.3793
382.000000	100.5	-27.0492
387.000000	100.4	-26.8047
395.000000	100.3	-26.3981
400.000000	100.2	-26.1359
406.000000	100.1	-25.8210
412.000000	100.0	-25.5084
418.000000	99.9	-25.1821
425.000000	99.8	-24.7614
431.000000	99.7	-24.3743
437.000000	99.7	-23.9884
444.000000	99.6	-23.5571
450.000000	99.5	-23.2190
455.000000	99.5	-22.9760
462.000000	99.4	-22.6815
468.000000	99.3	-22.4185
475.000000	99.2	-22.0596
482.000000	99.1	-21.6643
487.000000	99.1	-21.3743
494.000000	99.0	-20.9430
500.000000	98.9	-20.5371
508.000000	98.8	-19.9766
515.000000	98.7	-19.4985
522.000000	98.6	-19.0225
530.000000	98.5	-18.4518
538.000000	98.4	-17.8522
545.000000	98.4	-17.3198
552.000000	98.3	-16.7844
560.000000	98.2	-16.1787
570.000000	98.1	-15.4385
580.000000	98.1	-14.6899
590.000000	98.0	-13.9147
600.000000	97.9	-13.1031
608.000000	97.8	-12.4404
615.000000	97.8	-11.8612
622.000000	97.7	-11.2724
630.000000	97.6	-10.5682
640.000000	97.6	-9.6489
650.000000	97.5	-8.7159
660.000000	97.5	-7.7969
670.000000	97.4	-6.9494
680.000000	97.4	-6.1780
690.000000	97.4	-5.4237
700.000000	97.3	-4.6401
710.000000	97.3	-3.8182
720.000000	97.2	-2.9783
730.000000	97.2	-2.1312
740.000000	97.2	-1.2740
750.000000	97.1	-0.4044
762.000000	97.1	0.6550
775.000000	97.1	1.8164
788.000000	97.0	2.9861
800.000000	97.0	4.0825
812.000000	97.0	5.1906
825.000000	97.0	6.3419
838.000000	97.1	7.3780
850.000000	97.1	8.2558
862.000000	97.1	9.1116
875.000000	97.1	10.0384
885.000000	97.1	10.7455
900.000000	97.1	11.7668
912.000000	97.1	12.5580
925.000000	97.1	13.4398
938.000000	97.1	14.4411
950.000000	97.1	15.5485
962.000000	97.1	16.8109
975.000000	97.1	18.2234
988.000000	97.2	19.5526
1000.000000	97.3	20.6523
1015.000000	97.4	21.8490
1030.000000	97.5	22.8738
1044.000000	97.7	23.6973
1060.000000	97.8	24.5027
1075.000000	97.9	25.1863
1090.000000	98.0	25.8580
1106.000000	98.1	26.5779
1120.000000	98.2	27.2102
1138.000000	98.3	28.0270
1150.000000	98.3	28.5737
1172.000000	98.5	29.5800
1180.000000	98.5	29.9473
1206.000000	98.7	31.0827
1220.000000	98.8	31.6070
1241.000000	99.0	32.2975
1250.000000	99.0	32.5815
1265.000000	99.1	33.0611
1280.000000	99.2	33.5558
1315.000000	99.5	34.7454
1320.000000	99.5	34.9113
1340.000000	99.6	35.5514
1360.000000	99.8	36.1723
1380.000000	99.9	36.8133
1400.000000	100.1	37.5000
1430.000000	100.4	38.5108
1450.000000	100.6	39.0710
1475.000000	100.8	39.6511
1500.000000	101.1	40.1513
1525.000000	101.3	40.6107
1550.000000	101.5	41.0543
1575.000000	101.7	41.4641
1600.000000	101.9	41.7430
1625.000000	102.2	41.8347
1650.000000	102.4	41.7838
1675.000000	102.6	41.6424
1700.000000	102.8	41.4268
1725.000000	103.0	41.1330
1750.000000	103.1	40.7832
1775.000000	103.3	40.4190
1800.000000	103.5	40.0356
1825.000000	103.6	39.5645
1850.000000	103.8	38.9662
1875.000000	104.0	38.2569
1900.000000	104.1	37.4739
1925.000000	104.3	36.6540
1950.000000	104.4	35.8104
1975.000000	104.6	34.9073
2000.000000	104.8	33.8983
2030.000000	104.9	32.5477
2060.000000	105.1	31.0952
2090.000000	105.2	29.5871
2120.000000	105.3	28.0636
2140.000000	105.3	27.0729
2180.000000	105.4	25.2328
2200.000000	105.4	24.3792
2240.000000	105.4	22.7543
2270.000000	105.4	21.6073
2300.000000	105.4	20.5424
2330.000000	105.3	19.5648
2360.000000	105.3	18.6379
2400.000000	105.2	17.4086
2430.000000	105.2	16.5002
2470.000000	105.1	15.3585
2500.000000	105.0	14.5654
2540.000000	104.9	13.6096
2580.000000	104.8	12.7872
2620.000000	104.6	12.0797
2650.000000	104.5	11.6415
2690.000000	104.4	11.2584
2720.000000	104.2	11.1628
2760.000000	104.1	11.2510
2800.000000	104.0	11.4547
2850.000000	103.9	11.6719
2900.000000	103.8	11.7198
2950.000000	103.7	11.6501
3000.000000	103.7	11.5594
3040.000000	103.6	11.5132
3070.000000	103.5	11.5349
3110.000000	103.4	11.6958
3150.000000	103.3	12.0228
3200.000000	103.1	12.6179
3250.000000	103.0	13.3628
3300.000000	103.0	14.2321
3350.000000	102.9	15.2219
3400.000000	102.9	16.2616
3450.000000	102.9	17.2709
3500.000000	103.0	18.2637
3550.000000	103.1	19.2678
3600.000000	103.2	20.2357
3650.000000	103.3	21.0708
3700.000000	103.5	21.6936
3750.000000	103.7	22.0692
3820.000000	104.0	22.1168
3870.000000	104.2	21.8041
3950.000000	104.5	20.7546
4000.000000	104.7	19.7139
4060.000000	104.9	18.0194
4120.000000	105.0	15.9009
4180.000000	105.0	13.5298
4250.000000	104.9	10.7809
4310.000000	104.7	8.8374
4370.000000	104.3	7.6042
4440.000000	103.9	7.2542
4500.000000	103.6	7.8368
4550.000000	103.5	8.7603
4620.000000	103.4	10.2289
4680.000000	103.4	11.1912
4750.000000	103.6	11.5463
4820.000000	103.8	10.8584
4870.000000	103.9	9.7434
4940.000000	103.9	7.5232
5000.000000	103.9	5.2858
5080.000000	103.6	2.3494
5150.000000	103.3	0.2450
5220.000000	102.9	-1.2218
5300.000000	102.3	-2.0991
5380.000000	101.8	-2.2188
5450.000000	101.3	-1.7950
5520.000000	100.8	-0.9196
5600.000000	100.3	0.5908
5700.000000	99.7	3.1056
5800.000000	99.2	6.0745
5900.000000	98.8	9.3163
6000.000000	98.5	12.8256
6080.000000	98.3	15.8024
6150.000000	98.1	18.4880
6220.000000	98.0	21.2142
6300.000000	97.9	24.3712
6400.000000	97.9	28.3991
6500.000000	98.0	32.4950
6600.000000	98.1	36.5735
6700.000000	98.4	40.5815
6800.000000	98.7	44.5247
6900.000000	99.1	48.3763
7000.000000	99.6	52.0447
7100.000000	100.3	55.4281
7200.000000	101.0	58.4406
7300.000000	102.0	60.9426
7400.000000	103.1	62.6783
7500.000000	104.3	63.2885
7620.000000	105.9	61.8961
7750.000000	107.7	56.7197
7880.000000	109.0	46.8278
8000.000000	109.8	34.0581
8120.000000	109.9	20.0295
8250.000000	109.4	6.5359
8380.000000	108.5	-3.2618
8500.000000	107.5	-9.0545
8620.000000	106.7	-12.7549
8750.000000	106.0	-15.8057
8850.000000	105.6	-18.2485
9000.000000	105.2	-22.9813
9120.000000	104.9	-28.0007
9250.000000	104.4	-34.3428
9380.000000	103.7	-40.7001
9500.000000	102.9	-45.6899
9620.000000	101.9	-49.3141
9750.000000	100.7	-51.6451
9880.000000	99.7	-52.7891
10000.000000	98.8	-53.4586
10150.000000	97.9	-54.6407
10300.000000	97.2	-56.7706
10440.000000	96.4	-59.5857
10600.000000	95.5	-63.1119
10750.000000	94.4	-65.9281
10900.000000	93.2	-67.7214
11060.000000	91.8	-68.2695
11200.000000	90.6	-67.7444
11380.000000	89.1	-66.2891
11500.000000	88.3	-65.1971
11720.000000	86.9	-63.5282
11800.000000	86.4	-63.0825
12060.000000	85.0	-62.4951
12200.000000	84.4	-63.2180
12410.000000	83.7	-67.0302
12500.000000	83.4	-70.0342
12650.000000	82.8	-77.1771
12800.000000	82.1	-86.7905
13150.000000	78.9	-111.9891
13200.000000	78.3	-115.3223
13400.000000	75.6	-128.0161
13600.000000	72.7	-140.4845
13800.000000	69.8	-153.0940
14000.000000	67.5	-164.8884
14300.000000	65.6	-177.3551
14500.000000	65.5	178.7452
14750.000000	66.2	177.8495
15000.000000	67.3	-179.8120
15250.000000	68.6	-175.3146
15500.000000	70.2	-169.6783
15750.000000	72.2	-163.9197
16000.000000	74.5	-159.2588
16250.000000	77.0	-157.4712
16500.000000	79.3	-160.9117
16750.000000	80.9	-171.2397
17000.000000	81.5	173.2205
17250.000000	81.1	158.0607
17500.000000	79.9	148.5558
17750.000000	78.3	146.0584
18000.000000	76.7	149.0966
18250.000000	75.6	155.2327
18500.000000	75.4	161.1307
18750.000000	75.6	163.7646
19000.000000	75.8	162.9354
19250.000000	75.8	160.0432
19500.000000	75.7	156.0453
19750.000000	75.4	151.9021
