* Measurement data measured by REW V5.19
* Source: Mic in at front panel (Pink) (Realtek(R) Audio), no input selected, L, volume: no control
* Format: 256k Log Swept Sine, 1 sweep at -12.0 dBFS  With no timing reference
* Dated: Jun 26, 2021 1:17:03 PM
* REW Settings:
*  C-weighting compensation: Off
*  Target level: 75.0 dB
* Note: KBEAR KS2
* Measurement: Jun 26 13:17:03
* Smoothing: None
* Frequency Step: 1/48 octave
* Start Frequency: 20.3 Hz
*
* Freq(Hz)	SPL(dB)	Phase(degrees)
20.291	78.119	18.027
20.586	78.117	17.452
20.885	78.113	16.967
21.189	78.084	16.504
21.497	78.058	16.045
21.810	78.049	15.571
22.127	78.042	15.069
22.449	78.027	14.532
22.776	78.015	13.959
23.107	78.008	13.362
23.443	77.994	12.752
23.784	77.983	12.138
24.130	77.979	11.521
24.481	77.982	10.892
24.837	77.981	10.245
25.198	77.965	9.585
25.565	77.954	8.932
25.937	77.948	8.308
26.314	77.938	7.729
26.697	77.936	7.193
27.085	77.928	6.683
27.479	77.908	6.181
27.879	77.899	5.683
28.284	77.879	5.192
28.696	77.864	4.709
29.113	77.859	4.225
29.537	77.841	3.734
29.966	77.817	3.242
30.402	77.789	2.761
30.844	77.769	2.286
31.293	77.767	1.784
31.748	77.760	1.229
32.210	77.743	0.635
32.678	77.701	0.046
33.154	77.677	-0.521
33.636	77.671	-1.102
34.125	77.657	-1.733
34.621	77.635	-2.376
35.125	77.605	-2.937
35.636	77.581	-3.389
36.154	77.581	-3.820
36.680	77.588	-4.322
37.214	77.578	-4.856
37.755	77.542	-5.314
38.304	77.503	-5.691
38.861	77.478	-6.107
39.427	77.427	-6.619
40.000	77.360	-7.139
40.582	77.322	-7.589
41.172	77.293	-8.025
41.771	77.260	-8.531
42.379	77.222	-9.079
42.995	77.192	-9.581
43.620	77.171	-10.031
44.255	77.151	-10.492
44.898	77.122	-10.998
45.552	77.083	-11.508
46.214	77.047	-11.965
46.886	77.014	-12.376
47.568	76.978	-12.819
48.260	76.934	-13.307
48.962	76.869	-13.758
49.674	76.802	-14.170
50.397	76.762	-14.630
51.130	76.726	-15.097
51.874	76.695	-15.485
52.628	76.671	-15.886
53.394	76.624	-16.383
54.170	76.569	-16.857
54.958	76.530	-17.225
55.758	76.502	-17.576
56.569	76.475	-18.000
57.391	76.440	-18.437
58.226	76.401	-18.870
59.073	76.361	-19.413
59.932	76.303	-19.948
60.804	76.238	-20.325
61.688	76.181	-20.724
62.586	76.127	-21.140
63.496	76.088	-21.518
64.420	76.042	-21.970
65.357	75.972	-22.344
66.307	75.914	-22.672
67.272	75.868	-23.110
68.250	75.814	-23.512
69.243	75.763	-23.892
70.250	75.700	-24.319
71.272	75.630	-24.637
72.309	75.567	-25.022
73.360	75.494	-25.309
74.427	75.480	-25.590
75.510	75.410	-26.158
76.608	75.309	-26.155
77.723	75.304	-26.363
78.853	75.246	-27.044
80.000	75.169	-27.387
81.164	75.126	-28.059
82.344	75.041	-28.401
83.542	75.055	-29.279
84.757	74.874	-30.052
85.990	74.837	-29.747
87.241	74.769	-30.268
88.510	74.692	-30.326
89.797	74.576	-30.657
91.103	74.501	-30.804
92.428	74.360	-31.339
93.773	74.313	-31.023
95.137	74.280	-31.815
96.520	74.212	-31.965
97.924	74.136	-32.425
99.349	74.043	-32.721
100.794	73.930	-33.013
102.260	73.853	-33.277
103.747	73.795	-33.389
105.256	73.734	-33.664
106.787	73.610	-33.454
108.340	73.531	-34.026
109.916	73.421	-34.465
111.515	73.378	-34.992
113.137	73.354	-34.817
114.783	73.247	-34.662
116.452	73.035	-35.170
118.146	72.951	-35.289
119.865	71.129	-31.736
121.608	72.905	-33.877
123.377	72.633	-35.099
125.171	72.577	-35.993
126.992	72.646	-35.349
128.839	72.476	-35.348
130.713	72.387	-36.133
132.615	72.144	-36.334
134.543	72.309	-35.872
136.500	72.067	-36.196
138.486	72.022	-36.189
140.500	71.869	-36.127
142.544	71.760	-36.824
144.617	71.701	-36.487
146.721	71.674	-36.839
148.855	71.440	-38.664
151.020	71.501	-35.920
153.217	71.206	-35.917
155.445	71.159	-36.403
157.706	71.289	-36.760
160.000	71.403	-34.636
162.327	70.540	-31.683
164.688	71.506	-26.653
167.084	70.842	-37.775
169.514	71.506	-38.480
171.980	71.218	-33.700
174.481	70.748	-33.968
177.019	70.631	-35.242
179.594	70.498	-35.707
182.206	70.465	-36.117
184.856	70.369	-36.044
187.545	70.231	-36.280
190.273	70.228	-36.248
193.041	70.080	-36.187
195.849	70.071	-35.803
198.697	70.040	-35.637
201.587	69.947	-35.466
204.520	69.883	-35.333
207.494	69.872	-35.326
210.512	69.793	-35.486
213.574	69.716	-35.797
216.681	69.609	-35.996
219.833	69.466	-35.904
223.030	69.349	-35.681
226.274	69.282	-35.659
229.565	69.208	-35.688
232.905	69.081	-35.667
236.292	69.002	-35.603
239.729	68.916	-35.584
243.216	68.816	-35.472
246.754	68.697	-35.420
250.343	68.574	-35.331
253.984	68.453	-35.092
257.678	68.349	-34.442
261.426	68.288	-34.390
265.229	68.208	-34.283
269.087	68.087	-34.184
273.001	67.972	-33.872
276.972	67.872	-33.475
281.000	67.749	-33.146
285.088	67.660	-32.565
289.234	67.632	-31.888
293.441	67.614	-31.826
297.710	67.553	-31.775
302.040	67.465	-31.671
306.433	67.390	-31.558
310.890	67.311	-31.374
315.412	67.225	-31.222
320.000	67.082	-31.130
324.655	66.984	-30.752
329.377	66.899	-30.407
334.168	66.797	-30.046
339.028	66.715	-29.629
343.959	66.597	-29.345
348.962	66.489	-29.042
354.038	66.419	-28.645
359.188	66.339	-28.232
364.412	66.239	-27.821
369.713	66.136	-27.408
375.090	66.036	-26.944
380.546	65.949	-26.487
386.081	65.860	-26.025
391.697	65.774	-25.530
397.395	65.691	-25.009
403.175	65.592	-24.502
409.039	65.519	-23.937
414.989	65.419	-23.512
421.025	65.315	-22.975
427.149	65.220	-22.383
433.362	65.165	-21.554
439.665	65.089	-21.102
446.060	64.996	-20.424
452.548	64.929	-19.671
459.131	64.923	-19.345
465.809	64.790	-18.977
472.584	64.695	-18.349
479.458	64.602	-17.555
486.432	64.556	-16.854
493.507	64.423	-16.539
500.686	64.328	-15.485
507.968	64.273	-14.612
515.357	64.211	-13.923
522.853	64.145	-13.221
530.458	64.024	-12.514
538.174	63.987	-11.489
546.002	63.901	-10.840
553.943	63.829	-9.816
562.001	63.772	-8.904
570.175	63.707	-8.143
578.469	63.618	-7.235
586.883	63.578	-6.233
595.419	63.448	-5.316
604.080	63.395	-4.108
612.866	63.346	-2.979
621.780	63.314	-1.972
630.824	63.176	-0.826
640.000	63.200	0.715
649.309	63.123	1.948
658.753	63.073	3.447
668.335	63.153	5.003
678.056	63.149	6.035
687.919	63.147	7.482
697.925	63.139	8.633
708.076	63.150	10.187
718.376	63.203	11.588
728.825	63.243	12.997
739.426	63.308	14.387
750.181	63.378	15.705
761.093	63.454	16.983
772.163	63.540	18.217
783.394	63.642	19.497
794.789	63.741	20.437
806.349	63.819	21.687
818.078	63.949	22.706
829.977	64.073	24.069
842.050	64.229	24.353
854.297	64.300	25.160
866.724	64.435	25.605
879.330	64.454	26.724
892.120	64.573	27.550
905.097	64.636	28.048
918.262	64.751	29.068
931.618	64.817	30.042
945.169	64.943	30.867
958.917	65.026	31.745
972.864	65.108	32.390
987.015	65.227	33.363
1001.371	65.362	33.800
1015.937	65.456	35.026
1030.714	65.533	35.740
1045.706	65.725	36.996
1060.916	65.860	37.532
1076.347	65.996	37.929
1092.003	66.137	38.713
1107.887	66.267	39.241
1124.001	66.429	39.825
1140.350	66.568	40.420
1156.937	66.688	41.136
1173.765	66.838	41.518
1190.838	66.960	42.281
1208.159	67.170	43.419
1225.732	67.340	43.272
1243.561	67.533	43.497
1261.649	67.653	44.210
1280.000	67.798	44.246
1298.618	67.939	44.867
1317.507	68.102	45.522
1336.670	68.264	45.975
1356.113	68.411	46.223
1375.838	68.618	46.515
1395.850	68.730	47.061
1416.153	68.869	48.261
1436.751	69.130	48.545
1457.649	69.351	48.685
1478.851	69.583	49.099
1500.362	69.828	49.379
1522.185	70.092	49.670
1544.326	70.391	49.992
1566.789	70.668	50.297
1589.578	71.054	50.999
1612.699	71.360	51.359
1636.156	71.513	50.970
1659.955	71.549	50.761
1684.099	71.560	50.711
1708.595	71.629	50.654
1733.447	71.769	50.238
1758.661	71.957	49.669
1784.241	72.216	49.128
1810.193	72.562	49.395
1836.523	72.892	48.708
1863.236	73.227	47.963
1890.338	73.552	46.978
1917.833	73.866	45.941
1945.729	74.122	44.556
1974.030	74.455	43.730
2002.743	74.734	42.034
2031.873	75.007	40.211
2061.428	75.201	38.441
2091.412	75.438	36.559
2121.832	75.567	34.537
2152.695	75.653	31.921
2184.007	75.650	30.212
2215.774	75.715	28.312
2248.003	75.745	26.283
2280.701	75.709	24.228
2313.874	75.649	22.293
2347.530	75.533	21.214
2381.676	75.433	19.685
2416.318	75.339	18.580
2451.464	75.214	17.313
2487.122	75.042	16.479
2523.298	74.918	15.752
2560.000	74.671	15.509
2597.236	74.554	15.898
2635.014	74.481	16.279
2673.341	74.466	16.684
2712.226	74.393	16.745
2751.676	74.440	16.993
2791.700	74.439	17.216
2832.306	74.427	17.018
2873.503	74.436	17.533
2915.299	74.438	16.832
2957.703	74.437	17.544
3000.724	74.437	18.107
3044.370	74.475	18.635
3088.652	74.513	18.845
3133.577	74.625	19.653
3179.156	74.811	20.404
3225.398	74.999	20.844
3272.312	75.255	21.274
3319.909	75.455	21.055
3368.198	75.730	21.185
3417.190	76.039	21.104
3466.894	76.355	20.242
3517.321	76.649	19.590
3568.482	76.969	18.647
3620.387	77.281	17.151
3673.046	77.700	14.902
3726.472	77.958	12.166
3780.675	78.209	9.023
3835.666	78.427	4.988
3891.457	78.468	0.891
3948.060	78.390	-2.862
4005.486	78.227	-6.370
4063.747	78.005	-10.373
4122.855	77.560	-13.111
4182.824	77.084	-14.899
4243.664	76.561	-16.735
4305.390	75.986	-17.081
4368.013	75.466	-17.284
4431.547	75.059	-16.135
4496.005	74.673	-15.708
4561.401	74.351	-14.646
4627.749	74.174	-14.257
4695.061	73.927	-14.058
4763.352	73.694	-13.691
4832.637	73.546	-13.162
4902.929	73.346	-13.325
4974.244	73.167	-13.152
5046.596	72.967	-13.583
5120.000	72.758	-13.451
5194.472	72.452	-12.472
5270.027	72.181	-11.775
5346.682	71.911	-10.416
5424.451	71.673	-9.432
5503.352	71.365	-8.097
5583.399	71.027	-5.814
5664.612	70.761	-3.809
5747.006	70.505	-1.313
5830.598	70.306	1.129
5915.406	70.111	3.351
6001.447	70.029	6.366
6088.740	69.909	9.343
6177.303	69.945	12.444
6267.154	70.036	15.566
6358.312	70.089	18.763
6450.796	70.277	21.788
6544.625	70.565	25.430
6639.818	70.960	28.497
6736.397	71.384	31.277
6834.380	72.030	33.476
6933.789	72.801	34.974
7034.643	73.731	34.699
7136.964	74.636	32.322
7240.773	75.393	26.309
7346.093	75.615	17.516
7452.944	74.962	8.280
7561.350	73.547	4.020
7671.332	71.890	5.639
7782.915	70.743	12.812
7896.120	70.101	22.659
8010.971	70.253	33.055
8127.493	70.964	43.334
8245.711	72.441	50.638
8365.647	74.382	54.329
8487.328	76.626	52.309
8610.779	78.933	42.947
8736.026	80.214	24.506
8863.095	79.591	5.230
8992.011	77.973	-5.303
9122.803	76.414	-9.241
9255.497	75.157	-10.297
9390.121	74.169	-8.547
9526.704	73.552	-5.772
9665.273	73.137	-3.588
9805.857	72.998	-1.065
9948.487	73.057	1.656
10093.191	73.339	2.606
10240.000	73.776	2.550
10388.944	74.450	0.814
10540.055	74.976	-4.043
10693.363	75.365	-11.434
10848.902	75.328	-21.209
11006.703	74.744	-31.577
11166.799	73.940	-39.581
11329.224	72.980	-47.388
11494.012	71.906	-54.607
11661.195	70.922	-64.228
11830.812	69.416	-78.029
12002.895	66.482	-94.248
12177.480	61.301	-106.547
12354.606	52.937	-99.877
12534.309	48.437	-16.669
12716.624	55.121	10.099
12901.592	58.823	7.345
13089.250	60.565	-4.740
13279.637	60.532	-20.777
13472.794	58.768	-32.949
13668.760	56.299	-37.711
13867.577	53.607	-37.186
14069.285	51.080	-33.051
14273.928	48.839	-26.378
14481.547	46.754	-17.015
14692.186	44.906	-5.405
14905.889	43.319	13.120
15122.700	43.634	39.437
15342.664	47.416	30.389
15565.829	42.393	20.108
15792.239	42.378	85.252
16021.942	44.571	62.880
16254.986	43.068	63.251
16491.422	41.960	69.517
16731.295	41.804	76.750
16974.656	41.431	84.588
17221.559	41.226	92.949
17472.053	41.486	103.461
17726.189	42.179	111.808
17984.021	43.583	118.447
18245.605	45.421	120.677
18510.994	47.670	111.233
18780.242	48.866	89.164
19053.408	47.155	62.270
19330.547	43.510	41.391
19611.715	38.587	24.386
19896.975	30.910	13.702
