* Measurement data measured by REW V5.20.13
* Source: EXCL: Mic in at front panel (Pink) (Realtek(R) Audio), MICROPHONE (Master Volume), L, volume: 0.250
* Format: 256k Log Swept Sine, 1 sweep at -12.0 dBFS with no timing reference
* Dated: Dec 10, 2022 11:23:48 PM
* REW Settings:
*  C-weighting compensation: Off
*  Target level: 75.0 dB
* Note: Kiiboom Evoke R
* Measurement: Kiiboom Evoke R
* Smoothing: 1/12 octave
* Frequency Step: 1/48 octave
* Start Frequency: 20.000 Hz
*
* Freq(Hz)	SPL(dB)	Phase(degrees)
20.000000	100.363	-166.2160
20.299999	100.369	-166.9664
20.600000	100.374	-167.7047
20.900000	100.377	-168.4296
21.200001	100.379	-169.1399
21.400000	100.380	-169.6050
21.799999	100.380	-170.5160
22.000000	100.380	-170.9626
22.400000	100.378	-171.8400
22.700001	100.376	-172.4855
23.000000	100.372	-173.1209
23.299999	100.368	-173.7455
23.600000	100.362	-174.3586
24.000000	100.353	-175.1570
24.299999	100.346	-175.7413
24.700001	100.335	-176.5027
25.000000	100.326	-177.0627
25.400000	100.315	-177.7983
25.799999	100.303	-178.5246
26.200001	100.290	-179.2431
26.500000	100.279	-179.7766
26.900000	100.264	179.5212
27.200001	100.252	179.0026
27.600000	100.234	178.3231
28.000000	100.216	177.6579
28.500000	100.192	176.8456
29.000000	100.169	176.0518
29.500000	100.145	175.2735
30.000000	100.120	174.5089
30.400000	100.100	173.9079
30.700001	100.083	173.4644
31.100000	100.061	172.8846
31.500000	100.038	172.3185
32.000000	100.009	171.6293
32.500000	99.980	170.9567
33.000000	99.951	170.2955
33.500000	99.922	169.6425
34.000000	99.891	168.9970
34.500000	99.859	168.3604
35.000000	99.826	167.7347
35.500000	99.792	167.1212
36.000000	99.758	166.5194
36.500000	99.723	165.9276
37.000000	99.688	165.3439
37.500000	99.652	164.7686
38.200001	99.600	163.9833
38.700001	99.562	163.4414
39.500000	99.502	162.6072
40.000000	99.465	162.1022
40.599998	99.422	161.5088
41.200001	99.378	160.9273
41.799999	99.335	160.3559
42.500000	99.284	159.6996
43.099998	99.240	159.1458
43.700001	99.195	158.6017
44.400002	99.141	157.9820
45.000000	99.094	157.4648
45.500000	99.055	157.0428
46.200001	99.001	156.4622
46.799999	98.955	155.9713
47.500000	98.901	155.4061
48.200001	98.846	154.8524
48.700001	98.807	154.4662
49.400002	98.752	153.9391
50.000000	98.706	153.4985
50.799999	98.644	152.9235
51.500000	98.591	152.4330
52.200001	98.537	151.9602
53.000000	98.476	151.4433
53.799999	98.418	150.9407
54.500000	98.369	150.5030
55.200001	98.320	150.0672
56.000000	98.264	149.5764
57.000000	98.195	148.9690
58.000000	98.126	148.3551
59.000000	98.055	147.7393
60.000000	97.981	147.1401
60.799999	97.921	146.6797
61.500000	97.868	146.2895
62.200001	97.816	145.9088
63.000000	97.756	145.4841
64.000000	97.682	144.9683
65.000000	97.608	144.4663
66.000000	97.535	143.9728
67.000000	97.462	143.4816
68.000000	97.388	142.9899
69.000000	97.310	142.5190
70.000000	97.230	142.0959
71.000000	97.154	141.7233
72.000000	97.083	141.3856
73.000000	97.017	141.0625
74.000000	96.956	140.7229
75.000000	96.894	140.3445
76.199997	96.811	139.8751
77.500000	96.715	139.3992
78.800003	96.624	138.9355
80.000000	96.547	138.4955
81.199997	96.474	138.0443
82.500000	96.396	137.5500
83.800003	96.311	137.0728
85.000000	96.225	136.6573
86.199997	96.129	136.2485
87.500000	96.013	135.8175
88.500000	95.920	135.4990
90.000000	95.784	135.0172
91.199997	95.677	134.6394
92.500000	95.558	134.3220
93.800003	95.441	134.1697
95.000000	95.339	134.1491
96.199997	95.239	134.1996
97.500000	95.131	134.3298
98.800003	95.028	134.5553
100.000000	94.944	134.8577
101.500000	94.857	135.3802
103.000000	94.795	136.0565
104.400002	94.762	136.7228
106.000000	94.752	137.2805
107.500000	94.762	137.3574
109.000000	94.780	136.9160
110.599998	94.804	136.0829
112.000000	94.846	135.3245
113.800003	94.943	134.3659
115.000000	95.003	133.7488
117.199997	95.046	132.9071
118.000000	95.039	132.7011
120.599998	94.935	132.2492
122.000000	94.850	132.1418
124.099998	94.742	132.0268
125.000000	94.707	131.9323
126.500000	94.659	131.6878
128.000000	94.616	131.3578
131.500000	94.514	130.3192
132.000000	94.498	130.1378
134.000000	94.422	129.3814
136.000000	94.337	128.6773
138.000000	94.256	128.0911
140.000000	94.182	127.6043
143.000000	94.074	127.0635
145.000000	94.007	126.8003
147.500000	93.920	126.4877
150.000000	93.824	126.2246
152.500000	93.726	126.0255
155.000000	93.633	125.8180
157.500000	93.544	125.5626
160.000000	93.463	125.2745
162.500000	93.387	124.9566
165.000000	93.308	124.6269
167.500000	93.225	124.3031
170.000000	93.143	124.0244
172.500000	93.067	123.8175
175.000000	92.998	123.6583
177.500000	92.934	123.5144
180.000000	92.872	123.3697
182.500000	92.812	123.2083
185.000000	92.756	123.0150
187.500000	92.705	122.7837
190.000000	92.654	122.5366
192.500000	92.599	122.3072
195.000000	92.540	122.1115
197.500000	92.477	121.9520
200.000000	92.412	121.8274
203.000000	92.336	121.7107
206.000000	92.274	121.5738
209.000000	92.224	121.3708
212.000000	92.174	121.1326
214.000000	92.133	120.9687
218.000000	92.039	120.6102
220.000000	91.991	120.4364
224.000000	91.915	120.2655
227.000000	91.875	120.2989
230.000000	91.837	120.3445
233.000000	91.795	120.3348
236.000000	91.751	120.2809
240.000000	91.691	120.2005
243.000000	91.641	120.1841
247.000000	91.572	120.2837
250.000000	91.528	120.4500
254.000000	91.496	120.7517
258.000000	91.503	121.0333
262.000000	91.542	121.1372
265.000000	91.578	121.0565
269.000000	91.621	120.7743
272.000000	91.641	120.4833
276.000000	91.650	120.0616
280.000000	91.644	119.6550
285.000000	91.630	119.1878
290.000000	91.614	118.7112
295.000000	91.589	118.2086
300.000000	91.550	117.7568
304.000000	91.517	117.4597
307.000000	91.492	117.2647
311.000000	91.462	117.0227
315.000000	91.431	116.7930
320.000000	91.393	116.5385
325.000000	91.357	116.3333
330.000000	91.328	116.1558
335.000000	91.305	115.9778
340.000000	91.286	115.7870
345.000000	91.266	115.5905
350.000000	91.245	115.4041
355.000000	91.226	115.2331
360.000000	91.209	115.0731
365.000000	91.193	114.9198
370.000000	91.178	114.7722
375.000000	91.165	114.6312
382.000000	91.148	114.4442
387.000000	91.138	114.3177
395.000000	91.125	114.1281
400.000000	91.119	114.0154
406.000000	91.114	113.8770
412.000000	91.109	113.7312
418.000000	91.102	113.5949
425.000000	91.095	113.4750
431.000000	91.095	113.3991
437.000000	91.101	113.3222
444.000000	91.113	113.2131
450.000000	91.127	113.0861
455.000000	91.138	112.9398
462.000000	91.147	112.6896
468.000000	91.144	112.4888
475.000000	91.137	112.3114
482.000000	91.130	112.1751
487.000000	91.126	112.0882
494.000000	91.117	111.9959
500.000000	91.110	111.9570
508.000000	91.108	111.9294
515.000000	91.108	111.8980
522.000000	91.108	111.8703
530.000000	91.107	111.8719
538.000000	91.110	111.9070
545.000000	91.116	111.9470
552.000000	91.125	111.9907
560.000000	91.138	112.0347
570.000000	91.155	112.0716
580.000000	91.170	112.1157
590.000000	91.183	112.1844
600.000000	91.197	112.2880
608.000000	91.210	112.3860
615.000000	91.221	112.4742
622.000000	91.230	112.5760
630.000000	91.241	112.7295
640.000000	91.261	112.9685
650.000000	91.289	113.2289
660.000000	91.328	113.4824
670.000000	91.373	113.6720
680.000000	91.414	113.7955
690.000000	91.444	113.9148
700.000000	91.469	114.0766
710.000000	91.493	114.2892
720.000000	91.519	114.5319
730.000000	91.546	114.7943
740.000000	91.575	115.0792
750.000000	91.604	115.3882
762.000000	91.643	115.7900
775.000000	91.689	116.2573
788.000000	91.739	116.7510
800.000000	91.791	117.2411
812.000000	91.852	117.7605
825.000000	91.933	118.2925
838.000000	92.020	118.7292
850.000000	92.093	119.0757
862.000000	92.158	119.4261
875.000000	92.226	119.8420
885.000000	92.279	120.1875
900.000000	92.362	120.7243
912.000000	92.430	121.1678
925.000000	92.509	121.6566
938.000000	92.593	122.1333
950.000000	92.672	122.5505
962.000000	92.750	122.9524
975.000000	92.834	123.3849
988.000000	92.917	123.8216
1000.000000	92.995	124.2349
1015.000000	93.095	124.7800
1030.000000	93.206	125.3361
1044.000000	93.320	125.8035
1060.000000	93.452	126.2202
1075.000000	93.567	126.5293
1090.000000	93.673	126.8153
1106.000000	93.778	127.1177
1120.000000	93.865	127.3850
1138.000000	93.970	127.7424
1150.000000	94.037	127.9946
1172.000000	94.158	128.4958
1180.000000	94.203	128.6910
1206.000000	94.360	129.3036
1220.000000	94.445	129.5654
1241.000000	94.560	129.8847
1250.000000	94.603	130.0180
1265.000000	94.669	130.2576
1280.000000	94.728	130.5278
1315.000000	94.856	131.2821
1320.000000	94.873	131.4003
1340.000000	94.943	131.8970
1360.000000	95.015	132.4497
1380.000000	95.098	133.0516
1400.000000	95.195	133.6923
1430.000000	95.367	134.7490
1450.000000	95.480	135.4912
1475.000000	95.600	136.3881
1500.000000	95.705	137.1860
1525.000000	95.802	137.9335
1550.000000	95.895	138.7405
1575.000000	95.998	139.6506
1600.000000	96.116	140.5760
1625.000000	96.236	141.4328
1650.000000	96.351	142.2413
1675.000000	96.458	143.0491
1700.000000	96.562	143.8776
1725.000000	96.662	144.7284
1750.000000	96.760	145.6216
1775.000000	96.858	146.5919
1800.000000	96.968	147.6278
1825.000000	97.092	148.6572
1850.000000	97.225	149.6393
1875.000000	97.362	150.5833
1900.000000	97.500	151.5104
1925.000000	97.637	152.4308
1950.000000	97.778	153.3399
1975.000000	97.926	154.2012
2000.000000	98.081	154.9711
2030.000000	98.264	155.7850
2060.000000	98.437	156.5307
2090.000000	98.603	157.2345
2120.000000	98.759	157.9194
2140.000000	98.860	158.3864
2180.000000	99.067	159.3749
2200.000000	99.178	159.8694
2240.000000	99.415	160.7451
2270.000000	99.600	161.2611
2300.000000	99.781	161.6688
2330.000000	99.957	161.9915
2360.000000	100.128	162.2166
2400.000000	100.341	162.3183
2430.000000	100.480	162.2615
2470.000000	100.631	162.0774
2500.000000	100.719	161.9016
2540.000000	100.802	161.6993
2580.000000	100.857	161.5932
2620.000000	100.892	161.5552
2650.000000	100.904	161.5594
2690.000000	100.900	161.6505
2720.000000	100.887	161.8203
2760.000000	100.870	162.1727
2800.000000	100.856	162.6078
2850.000000	100.840	163.1983
2900.000000	100.822	163.7934
2950.000000	100.796	164.3960
3000.000000	100.762	164.9949
3040.000000	100.721	165.4665
3070.000000	100.680	165.8499
3110.000000	100.613	166.4562
3150.000000	100.543	167.1816
3200.000000	100.460	168.1974
3250.000000	100.383	169.2692
3300.000000	100.302	170.3877
3350.000000	100.220	171.5994
3400.000000	100.143	172.9023
3450.000000	100.074	174.2623
3500.000000	100.012	175.6889
3550.000000	99.966	177.1664
3600.000000	99.941	178.6195
3650.000000	99.928	179.9813
3700.000000	99.917	-178.7539
3750.000000	99.904	-177.5501
3820.000000	99.886	-175.9586
3870.000000	99.870	-174.8840
3950.000000	99.848	-173.2440
4000.000000	99.841	-172.3295
4060.000000	99.828	-171.4257
4120.000000	99.794	-170.7207
4180.000000	99.730	-170.1477
4250.000000	99.607	-169.5453
4310.000000	99.462	-168.9597
4370.000000	99.292	-168.2412
4440.000000	99.076	-167.2552
4500.000000	98.878	-166.2989
4550.000000	98.706	-165.4135
4620.000000	98.455	-164.0307
4680.000000	98.235	-162.6861
4750.000000	97.984	-160.9087
4820.000000	97.755	-158.9693
4870.000000	97.607	-157.5388
4940.000000	97.420	-155.5152
5000.000000	97.277	-153.7815
5080.000000	97.105	-151.4531
5150.000000	96.978	-149.3646
5220.000000	96.886	-147.2599
5300.000000	96.830	-144.9289
5380.000000	96.826	-142.7706
5450.000000	96.862	-141.0755
5520.000000	96.931	-139.5723
5600.000000	97.059	-138.1339
5700.000000	97.291	-136.9359
5800.000000	97.578	-136.6468
5900.000000	97.873	-137.4108
6000.000000	98.129	-139.2046
6080.000000	98.279	-141.3282
6150.000000	98.352	-143.6177
6220.000000	98.355	-146.2016
6300.000000	98.259	-149.3082
6400.000000	97.993	-153.0177
6500.000000	97.594	-156.1312
6600.000000	97.109	-158.4113
6700.000000	96.589	-159.7769
6800.000000	96.079	-160.2376
6900.000000	95.623	-159.9102
7000.000000	95.256	-158.9999
7100.000000	94.990	-157.7152
7200.000000	94.828	-156.2184
7300.000000	94.770	-154.6762
7400.000000	94.809	-153.3025
7500.000000	94.922	-152.3093
7620.000000	95.103	-151.8213
7750.000000	95.288	-152.3206
7880.000000	95.365	-153.9335
8000.000000	95.251	-156.1110
8120.000000	94.905	-158.3017
8250.000000	94.254	-159.7837
8380.000000	93.356	-159.4696
8500.000000	92.386	-157.1600
8620.000000	91.371	-152.8876
8750.000000	90.323	-146.2202
8850.000000	89.632	-139.9652
9000.000000	88.885	-129.7323
9120.000000	88.529	-121.5806
9250.000000	88.298	-113.1746
9380.000000	88.145	-105.1986
9500.000000	88.032	-98.1058
9620.000000	87.927	-91.1602
9750.000000	87.818	-83.6843
9880.000000	87.716	-76.2000
10000.000000	87.634	-69.2880
10150.000000	87.544	-60.6405
10300.000000	87.473	-51.9880
10440.000000	87.422	-43.9419
10600.000000	87.374	-34.7819
10750.000000	87.339	-26.2314
10900.000000	87.309	-17.7300
11060.000000	87.275	-8.6770
11200.000000	87.244	-0.7262
11380.000000	87.209	9.6021
11500.000000	87.201	16.5559
11720.000000	87.228	29.2830
11800.000000	87.248	33.8797
12060.000000	87.336	48.7649
12200.000000	87.405	56.7962
12410.000000	87.561	68.8993
12500.000000	87.657	74.0864
12650.000000	87.865	82.6808
12800.000000	88.149	91.1221
13150.000000	89.140	109.2679
13200.000000	89.316	111.5585
13400.000000	90.063	119.5410
13600.000000	90.778	125.1684
13800.000000	91.297	128.1850
14000.000000	91.463	129.2010
14300.000000	90.884	130.4913
14500.000000	90.016	133.7291
14750.000000	88.688	141.7561
15000.000000	87.533	153.0985
15250.000000	86.960	164.8915
15500.000000	86.972	173.7571
15750.000000	87.119	177.3677
16000.000000	86.874	175.9828
16250.000000	85.942	172.4997
16500.000000	84.315	170.0695
16750.000000	82.090	170.7142
17000.000000	79.335	176.0906
17250.000000	76.131	-172.9373
17500.000000	72.606	-156.4680
17750.000000	68.879	-134.4316
18000.000000	65.044	-106.3554
18250.000000	61.225	-72.7789
18500.000000	57.730	-36.2493
18750.000000	55.120	0.2305
19000.000000	53.852	35.2283
19250.000000	53.865	68.3740
19500.000000	54.744	98.8578
19750.000000	55.979	125.4232
20000.000000	57.168	147.4088
