* Measurement data measured by REW V5.20.13
* Source: EXCL: Mic in at front panel (Pink) (Realtek(R) Audio), MICROPHONE (Master Volume), L, volume: 0.250
* Format: 256k Log Swept Sine, 1 sweep at -12.0 dBFS with no timing reference
* Dated: Dec 23, 2022 11:55:19 AM
* REW Settings:
*  C-weighting compensation: Off
*  Target level: 75.0 dB
* Note: Kiwiears Cadenza L
* Measurement: Kiwiears Cadenza L
* Smoothing: 1/12 octave
* Frequency Step: 1/48 octave
* Start Frequency: 20.000 Hz
*
* Freq(Hz)	SPL(dB)	Phase(degrees)
20.000000	96.679	11.4846
20.299999	96.672	10.7634
20.600000	96.657	10.1031
20.900000	96.638	9.5189
21.200001	96.620	9.0058
21.400000	96.610	8.6898
21.799999	96.596	8.0908
22.000000	96.592	7.7943
22.400000	96.587	7.1888
22.700001	96.584	6.7205
23.000000	96.582	6.2378
23.299999	96.581	5.7334
23.600000	96.578	5.1981
24.000000	96.570	4.4291
24.299999	96.557	3.8223
24.700001	96.525	3.0156
25.000000	96.492	2.4531
25.400000	96.444	1.7988
25.799999	96.402	1.2492
26.200001	96.373	0.7456
26.500000	96.361	0.3523
26.900000	96.349	-0.2271
27.200001	96.337	-0.6998
27.600000	96.314	-1.3468
28.000000	96.282	-1.9606
28.500000	96.235	-2.6353
29.000000	96.193	-3.2203
29.500000	96.156	-3.7596
30.000000	96.125	-4.2811
30.400000	96.103	-4.6921
30.700001	96.088	-5.0016
31.100000	96.070	-5.4277
31.500000	96.053	-5.8789
32.000000	96.026	-6.4742
32.500000	95.992	-7.0724
33.000000	95.951	-7.6357
33.500000	95.909	-8.1553
34.000000	95.870	-8.6495
34.500000	95.833	-9.1425
35.000000	95.798	-9.6531
35.500000	95.761	-10.1976
36.000000	95.717	-10.7739
36.500000	95.662	-11.3462
37.000000	95.598	-11.8618
37.500000	95.536	-12.3096
38.200001	95.462	-12.9216
38.700001	95.413	-13.4053
39.500000	95.330	-14.1537
40.000000	95.288	-14.5564
40.599998	95.262	-15.0776
41.200001	95.241	-15.7574
41.799999	95.196	-16.4833
42.500000	95.111	-17.0476
43.099998	95.045	-17.1445
43.700001	95.015	-16.9698
44.400002	95.038	-16.6191
45.000000	95.103	-16.3746
45.500000	95.175	-16.3347
46.200001	95.273	-16.6317
46.799999	95.321	-17.1980
47.500000	95.307	-18.0604
48.200001	95.213	-18.8552
48.700001	95.114	-19.2392
49.400002	94.976	-19.5553
50.000000	94.877	-19.8517
50.799999	94.738	-20.4824
51.500000	94.579	-21.0135
52.200001	94.414	-21.2650
53.000000	94.273	-21.3203
53.799999	94.191	-21.4222
54.500000	94.144	-21.6344
55.200001	94.105	-21.9501
56.000000	94.055	-22.4012
57.000000	93.975	-23.0079
58.000000	93.876	-23.6268
59.000000	93.754	-24.2030
60.000000	93.625	-24.5775
60.799999	93.539	-24.7069
61.500000	93.485	-24.7482
62.200001	93.448	-24.7708
63.000000	93.409	-24.7523
64.000000	93.365	-24.4993
65.000000	93.359	-24.0712
66.000000	93.375	-23.9195
67.000000	93.343	-24.0986
68.000000	93.258	-24.2465
69.000000	93.178	-24.3492
70.000000	93.118	-24.6744
71.000000	93.050	-25.1813
72.000000	92.979	-25.6247
73.000000	92.926	-25.9627
74.000000	92.887	-26.2427
75.000000	92.848	-26.4566
76.199997	92.795	-26.6440
77.500000	92.719	-26.8209
78.800003	92.628	-27.0095
80.000000	92.541	-27.2428
81.199997	92.456	-27.5609
82.500000	92.366	-27.9517
83.800003	92.284	-28.3409
85.000000	92.214	-28.6935
86.199997	92.144	-29.0298
87.500000	92.063	-29.3460
88.500000	91.995	-29.5167
90.000000	91.892	-29.6274
91.199997	91.815	-29.6306
92.500000	91.739	-29.6158
93.800003	91.671	-29.6241
95.000000	91.614	-29.6597
96.199997	91.561	-29.7071
97.500000	91.500	-29.7485
98.800003	91.429	-29.7639
100.000000	91.350	-29.7657
101.500000	91.237	-29.7794
103.000000	91.126	-29.8251
104.400002	91.046	-29.9089
106.000000	90.986	-30.0157
107.500000	90.935	-30.0426
109.000000	90.867	-29.9719
110.599998	90.771	-29.8552
112.000000	90.700	-29.7805
113.800003	90.699	-29.6953
115.000000	90.790	-29.5299
117.199997	91.144	-28.7863
118.000000	91.302	-28.5098
120.599998	91.519	-28.7863
122.000000	91.283	-29.2072
124.099998	90.682	-29.2129
125.000000	90.435	-29.1533
126.500000	90.107	-29.1822
128.000000	89.892	-29.3063
131.500000	89.729	-29.0385
132.000000	89.733	-28.9704
134.000000	89.762	-28.8912
136.000000	89.761	-29.0675
138.000000	89.717	-29.2968
140.000000	89.650	-29.3274
143.000000	89.568	-28.8512
145.000000	89.520	-28.4261
147.500000	89.437	-28.1591
150.000000	89.347	-28.3306
152.500000	89.286	-28.7080
155.000000	89.219	-28.7725
157.500000	89.120	-28.3193
160.000000	89.012	-27.8168
162.500000	88.916	-27.5546
165.000000	88.838	-27.3551
167.500000	88.766	-27.0770
170.000000	88.688	-26.7540
172.500000	88.610	-26.4669
175.000000	88.528	-26.2709
177.500000	88.434	-26.1600
180.000000	88.344	-26.0312
182.500000	88.297	-25.8008
185.000000	88.292	-25.5541
187.500000	88.289	-25.3851
190.000000	88.265	-25.3264
192.500000	88.225	-25.3309
195.000000	88.170	-25.2456
197.500000	88.104	-24.9453
200.000000	88.044	-24.5306
203.000000	87.986	-24.1302
206.000000	87.934	-23.8749
209.000000	87.879	-23.6932
212.000000	87.817	-23.5232
214.000000	87.775	-23.3810
218.000000	87.703	-22.9946
220.000000	87.673	-22.7759
224.000000	87.618	-22.3550
227.000000	87.578	-22.0724
230.000000	87.537	-21.8032
233.000000	87.494	-21.5369
236.000000	87.452	-21.2841
240.000000	87.397	-20.9790
243.000000	87.354	-20.7613
247.000000	87.292	-20.4566
250.000000	87.246	-20.1963
254.000000	87.187	-19.7959
258.000000	87.140	-19.3783
262.000000	87.102	-19.0130
265.000000	87.071	-18.7782
269.000000	87.026	-18.4777
272.000000	86.991	-18.2362
276.000000	86.947	-17.8823
280.000000	86.908	-17.5007
285.000000	86.869	-17.0203
290.000000	86.841	-16.6194
295.000000	86.809	-16.3289
300.000000	86.763	-16.0617
304.000000	86.722	-15.8210
307.000000	86.692	-15.6267
311.000000	86.652	-15.3599
315.000000	86.613	-15.0878
320.000000	86.565	-14.7260
325.000000	86.518	-14.3262
330.000000	86.476	-13.9032
335.000000	86.439	-13.4860
340.000000	86.404	-13.0925
345.000000	86.370	-12.7205
350.000000	86.336	-12.3542
355.000000	86.303	-11.9833
360.000000	86.271	-11.6075
365.000000	86.240	-11.2296
370.000000	86.210	-10.8500
375.000000	86.182	-10.4667
382.000000	86.144	-9.9288
387.000000	86.119	-9.5492
395.000000	86.080	-8.9471
400.000000	86.058	-8.5724
406.000000	86.035	-8.1302
412.000000	86.011	-7.6985
418.000000	85.986	-7.2617
425.000000	85.958	-6.7249
431.000000	85.940	-6.2491
437.000000	85.927	-5.7839
444.000000	85.919	-5.2714
450.000000	85.916	-4.8715
455.000000	85.915	-4.5818
462.000000	85.905	-4.2316
468.000000	85.887	-3.9307
475.000000	85.862	-3.5375
482.000000	85.838	-3.1171
487.000000	85.821	-2.8143
494.000000	85.796	-2.3730
500.000000	85.777	-1.9661
508.000000	85.757	-1.4137
515.000000	85.744	-0.9512
522.000000	85.729	-0.4996
530.000000	85.710	0.0332
538.000000	85.695	0.5864
545.000000	85.685	1.0716
552.000000	85.678	1.5545
560.000000	85.672	2.0942
570.000000	85.667	2.7418
580.000000	85.659	3.3846
590.000000	85.652	4.0405
600.000000	85.646	4.7192
608.000000	85.645	5.2675
615.000000	85.646	5.7414
622.000000	85.645	6.2198
630.000000	85.645	6.7917
640.000000	85.653	7.5374
650.000000	85.669	8.2883
660.000000	85.697	9.0195
670.000000	85.731	9.6841
680.000000	85.762	10.2984
690.000000	85.789	10.9406
700.000000	85.826	11.6312
710.000000	85.882	12.2759
720.000000	85.945	12.7634
730.000000	85.995	13.1238
740.000000	86.029	13.4561
750.000000	86.053	13.8090
762.000000	86.075	14.2628
775.000000	86.091	14.7831
788.000000	86.099	15.3491
800.000000	86.101	15.9575
812.000000	86.106	16.6714
825.000000	86.127	17.5105
838.000000	86.161	18.3401
850.000000	86.195	19.0950
862.000000	86.233	19.8679
875.000000	86.281	20.7339
885.000000	86.325	21.4115
900.000000	86.403	22.4179
912.000000	86.474	23.2119
925.000000	86.561	24.0552
938.000000	86.658	24.8597
950.000000	86.754	25.5531
962.000000	86.855	26.2014
975.000000	86.967	26.8619
988.000000	87.084	27.4800
1000.000000	87.194	28.0151
1015.000000	87.338	28.6482
1030.000000	87.492	29.2224
1044.000000	87.645	29.6502
1060.000000	87.818	29.9665
1075.000000	87.966	30.1385
1090.000000	88.100	30.2555
1106.000000	88.231	30.3540
1120.000000	88.338	30.4315
1138.000000	88.466	30.5361
1150.000000	88.548	30.6151
1172.000000	88.694	30.7887
1180.000000	88.747	30.8615
1206.000000	88.932	31.0641
1220.000000	89.033	31.0965
1241.000000	89.172	31.0557
1250.000000	89.226	31.0272
1265.000000	89.309	30.9855
1280.000000	89.388	30.9592
1315.000000	89.561	30.9612
1320.000000	89.585	30.9644
1340.000000	89.679	30.9771
1360.000000	89.767	31.0053
1380.000000	89.850	31.0808
1400.000000	89.937	31.2252
1430.000000	90.088	31.4707
1450.000000	90.197	31.5591
1475.000000	90.328	31.5967
1500.000000	90.450	31.6069
1525.000000	90.566	31.6328
1550.000000	90.681	31.7061
1575.000000	90.806	31.8162
1600.000000	90.944	31.8727
1625.000000	91.082	31.8210
1650.000000	91.211	31.7045
1675.000000	91.332	31.5737
1700.000000	91.449	31.4417
1725.000000	91.561	31.3018
1750.000000	91.666	31.1739
1775.000000	91.770	31.0975
1800.000000	91.881	31.0654
1825.000000	92.003	31.0072
1850.000000	92.128	30.8812
1875.000000	92.249	30.7010
1900.000000	92.365	30.5007
1925.000000	92.478	30.3127
1950.000000	92.594	30.1450
1975.000000	92.719	29.9568
2000.000000	92.848	29.6964
2030.000000	92.999	29.2790
2060.000000	93.141	28.7865
2090.000000	93.271	28.2498
2120.000000	93.391	27.6879
2140.000000	93.464	27.3201
2180.000000	93.606	26.6447
2200.000000	93.679	26.3171
2240.000000	93.828	25.6047
2270.000000	93.933	25.0168
2300.000000	94.031	24.4196
2330.000000	94.125	23.8439
2360.000000	94.223	23.2695
2400.000000	94.356	22.4218
2430.000000	94.450	21.7070
2470.000000	94.560	20.6788
2500.000000	94.628	19.8776
2540.000000	94.699	18.8359
2580.000000	94.758	17.8723
2620.000000	94.813	16.9426
2650.000000	94.848	16.2476
2690.000000	94.883	15.3586
2720.000000	94.904	14.7515
2760.000000	94.934	14.0084
2800.000000	94.966	13.2913
2850.000000	95.002	12.4138
2900.000000	95.029	11.6100
2950.000000	95.057	10.9792
3000.000000	95.113	10.4961
3040.000000	95.185	10.1028
3070.000000	95.253	9.7554
3110.000000	95.360	9.1843
3150.000000	95.478	8.4385
3200.000000	95.623	7.1984
3250.000000	95.741	5.6459
3300.000000	95.815	3.9125
3350.000000	95.845	2.1642
3400.000000	95.845	0.4741
3450.000000	95.822	-1.1498
3500.000000	95.781	-2.6747
3550.000000	95.733	-4.1017
3600.000000	95.686	-5.4965
3650.000000	95.635	-6.9260
3700.000000	95.572	-8.4011
3750.000000	95.492	-9.8856
3820.000000	95.351	-11.9518
3870.000000	95.227	-13.3887
3950.000000	94.994	-15.5176
4000.000000	94.837	-16.7579
4060.000000	94.635	-18.1994
4120.000000	94.411	-19.5685
4180.000000	94.167	-20.8213
4250.000000	93.856	-22.1042
4310.000000	93.572	-22.9956
4370.000000	93.281	-23.6803
4440.000000	92.944	-24.2785
4500.000000	92.656	-24.6538
4550.000000	92.416	-24.8688
4620.000000	92.079	-25.0258
4680.000000	91.791	-25.0104
4750.000000	91.461	-24.7990
4820.000000	91.147	-24.4343
4870.000000	90.933	-24.1228
4940.000000	90.640	-23.6365
5000.000000	90.391	-23.1707
5080.000000	90.053	-22.4164
5150.000000	89.754	-21.5410
5220.000000	89.464	-20.4282
5300.000000	89.161	-18.8848
5380.000000	88.910	-17.1533
5450.000000	88.740	-15.6644
5520.000000	88.597	-14.3296
5600.000000	88.435	-12.9547
5700.000000	88.218	-11.2063
5800.000000	88.003	-9.2640
5900.000000	87.806	-7.1290
6000.000000	87.639	-4.7952
6080.000000	87.537	-2.8171
6150.000000	87.473	-1.0493
6220.000000	87.431	0.7186
6300.000000	87.406	2.7328
6400.000000	87.410	5.2665
6500.000000	87.459	7.8114
6600.000000	87.558	10.3078
6700.000000	87.704	12.7076
6800.000000	87.898	15.0090
6900.000000	88.148	17.1854
7000.000000	88.460	19.1527
7100.000000	88.831	20.8192
7200.000000	89.259	22.1163
7300.000000	89.745	22.9448
7400.000000	90.278	23.1422
7500.000000	90.835	22.5382
7620.000000	91.490	20.5849
7750.000000	92.114	16.8015
7880.000000	92.548	11.2836
8000.000000	92.694	5.0684
8120.000000	92.553	-1.4415
8250.000000	92.085	-7.8557
8380.000000	91.341	-12.7692
8500.000000	90.487	-15.5430
8620.000000	89.560	-16.5964
8750.000000	88.565	-16.0509
8850.000000	87.852	-14.6495
9000.000000	86.931	-11.3526
9120.000000	86.358	-8.0775
9250.000000	85.910	-4.2865
9380.000000	85.625	-0.5458
9500.000000	85.477	2.6564
9620.000000	85.401	5.5333
9750.000000	85.366	8.3429
9880.000000	85.362	10.9645
10000.000000	85.386	13.3194
10150.000000	85.467	16.2929
10300.000000	85.644	19.3325
10440.000000	85.931	22.1255
10600.000000	86.444	25.0476
10750.000000	87.138	27.1780
10900.000000	88.038	28.1841
11060.000000	89.163	27.2195
11200.000000	90.168	23.8306
11380.000000	91.233	15.0287
11500.000000	91.646	6.4650
11720.000000	91.514	-11.9437
11800.000000	91.162	-18.3090
12060.000000	89.106	-33.1974
12200.000000	87.627	-36.9275
12410.000000	85.277	-37.9985
12500.000000	84.297	-37.2622
12650.000000	82.769	-34.9711
12800.000000	81.407	-31.7540
13150.000000	78.906	-22.2657
13200.000000	78.620	-20.7753
13400.000000	77.635	-14.6398
13600.000000	76.896	-8.3968
13800.000000	76.396	-2.3755
14000.000000	76.107	3.0061
14300.000000	75.909	9.4598
14500.000000	75.857	12.9122
14750.000000	75.892	16.5260
15000.000000	76.094	19.1166
15250.000000	76.472	19.8290
15500.000000	76.900	17.5422
15750.000000	77.147	11.6791
16000.000000	76.985	2.9185
16250.000000	76.272	-6.7717
16500.000000	74.992	-14.9915
16750.000000	73.240	-20.0812
17000.000000	71.180	-21.6948
17250.000000	69.001	-20.5205
17500.000000	66.856	-17.6067
17750.000000	64.830	-13.8199
18000.000000	62.924	-9.6173
18250.000000	61.077	-5.0179
18500.000000	59.205	0.3585
18750.000000	57.257	7.1520
19000.000000	55.228	15.9620
19250.000000	53.165	27.0142
19500.000000	51.156	40.0893
19750.000000	49.294	54.7923
20000.000000	47.647	70.8098
