* Measurement data measured by REW V5.20.13
* Source: EXCL: Mic in at front panel (Pink) (Realtek(R) Audio), MICROPHONE (Master Volume), L, volume: 0.250
* Format: 256k Log Swept Sine, 1 sweep at -12.0 dBFS with no timing reference
* Dated: Dec 23, 2022 11:55:58 AM
* REW Settings:
*  C-weighting compensation: Off
*  Target level: 75.0 dB
* Note: Kiwiears Cadenza R
* Measurement: Kiwiears Cadenza R
* Smoothing: 1/12 octave
* Frequency Step: 1/48 octave
* Start Frequency: 20.000 Hz
*
* Freq(Hz)	SPL(dB)	Phase(degrees)
20.000000	95.875	19.8452
20.299999	95.884	18.9761
20.600000	95.874	18.0983
20.900000	95.844	17.2815
21.200001	95.801	16.5897
21.400000	95.771	16.2125
21.799999	95.722	15.6321
22.000000	95.707	15.4002
22.400000	95.705	14.9647
22.700001	95.722	14.5924
23.000000	95.749	14.1367
23.299999	95.776	13.5984
23.600000	95.799	13.0015
24.000000	95.820	12.1693
24.299999	95.829	11.5587
24.700001	95.840	10.7855
25.000000	95.850	10.2247
25.400000	95.868	9.4650
25.799999	95.883	8.6526
26.200001	95.886	7.7953
26.500000	95.874	7.1642
26.900000	95.840	6.4124
27.200001	95.807	5.9610
27.600000	95.764	5.5270
28.000000	95.737	5.2319
28.500000	95.733	4.8946
29.000000	95.749	4.4250
29.500000	95.757	3.8011
30.000000	95.743	3.1379
30.400000	95.720	2.6620
30.700001	95.703	2.3511
31.100000	95.685	1.9734
31.500000	95.676	1.5907
32.000000	95.674	1.0349
32.500000	95.669	0.3690
33.000000	95.650	-0.3580
33.500000	95.617	-1.0737
34.000000	95.576	-1.7375
34.500000	95.533	-2.3605
35.000000	95.487	-2.9629
35.500000	95.436	-3.5299
36.000000	95.382	-4.0220
36.500000	95.335	-4.4330
37.000000	95.303	-4.8273
37.500000	95.285	-5.2947
38.200001	95.255	-6.1216
38.700001	95.214	-6.7360
39.500000	95.133	-7.4642
40.000000	95.099	-7.7388
40.599998	95.090	-8.0221
41.200001	95.102	-8.3976
41.799999	95.112	-8.8658
42.500000	95.105	-9.4070
43.099998	95.082	-9.8066
43.700001	95.043	-10.1425
44.400002	94.969	-10.3907
45.000000	94.891	-10.4170
45.500000	94.832	-10.3507
46.200001	94.764	-10.3061
46.799999	94.703	-10.4236
47.500000	94.614	-10.6675
48.200001	94.523	-10.9034
48.700001	94.476	-11.1079
49.400002	94.442	-11.6182
50.000000	94.422	-12.3277
50.799999	94.379	-13.4895
51.500000	94.327	-14.4771
52.200001	94.272	-15.3253
53.000000	94.212	-16.0521
53.799999	94.164	-16.4721
54.500000	94.142	-16.6653
55.200001	94.129	-16.8062
56.000000	94.111	-16.9460
57.000000	94.080	-17.1276
58.000000	94.036	-17.4576
59.000000	93.964	-17.9410
60.000000	93.874	-18.3929
60.799999	93.815	-18.6782
61.500000	93.786	-18.9397
62.200001	93.771	-19.2745
63.000000	93.753	-19.7231
64.000000	93.721	-20.2491
65.000000	93.678	-20.6839
66.000000	93.617	-21.0267
67.000000	93.538	-21.2238
68.000000	93.458	-21.3245
69.000000	93.382	-21.4460
70.000000	93.307	-21.6211
71.000000	93.233	-21.8204
72.000000	93.169	-22.0456
73.000000	93.111	-22.3126
74.000000	93.056	-22.5804
75.000000	93.006	-22.8178
76.199997	92.952	-23.1028
77.500000	92.887	-23.4065
78.800003	92.816	-23.6548
80.000000	92.750	-23.8976
81.199997	92.673	-24.1964
82.500000	92.577	-24.5183
83.800003	92.481	-24.8052
85.000000	92.400	-25.0748
86.199997	92.323	-25.3621
87.500000	92.237	-25.6254
88.500000	92.173	-25.7690
90.000000	92.083	-25.9659
91.199997	92.009	-26.1169
92.500000	91.929	-26.2290
93.800003	91.860	-26.2979
95.000000	91.807	-26.3503
96.199997	91.756	-26.4028
97.500000	91.700	-26.4353
98.800003	91.644	-26.4377
100.000000	91.597	-26.4686
101.500000	91.535	-26.5660
103.000000	91.466	-26.6500
104.400002	91.399	-26.6797
106.000000	91.318	-26.7181
107.500000	91.236	-26.8048
109.000000	91.160	-26.9349
110.599998	91.096	-27.0394
112.000000	91.054	-26.9323
113.800003	90.994	-26.3434
115.000000	90.921	-25.6880
117.199997	90.680	-24.1033
118.000000	90.579	-23.5206
120.599998	90.372	-23.0464
122.000000	90.327	-24.0117
124.099998	90.308	-25.8934
125.000000	90.319	-26.5468
126.500000	90.350	-27.3075
128.000000	90.377	-27.7458
131.500000	90.307	-27.7903
132.000000	90.286	-27.6298
134.000000	90.206	-26.6307
136.000000	90.135	-25.5328
138.000000	90.055	-24.8969
140.000000	89.981	-25.0156
143.000000	89.902	-26.0553
145.000000	89.859	-26.5726
147.500000	89.767	-26.8117
150.000000	89.617	-26.9069
152.500000	89.450	-27.0720
155.000000	89.311	-26.9725
157.500000	89.229	-26.5745
160.000000	89.165	-26.1554
162.500000	89.090	-25.8077
165.000000	89.008	-25.4962
167.500000	88.919	-25.1534
170.000000	88.822	-24.7414
172.500000	88.723	-24.2390
175.000000	88.639	-23.6322
177.500000	88.584	-22.9138
180.000000	88.558	-22.1758
182.500000	88.554	-21.5967
185.000000	88.566	-21.2905
187.500000	88.589	-21.2186
190.000000	88.621	-21.2734
192.500000	88.654	-21.3917
195.000000	88.677	-21.5532
197.500000	88.671	-21.6971
200.000000	88.635	-21.7435
203.000000	88.572	-21.7070
206.000000	88.509	-21.6702
209.000000	88.447	-21.6356
212.000000	88.384	-21.5815
214.000000	88.338	-21.5349
218.000000	88.244	-21.4028
220.000000	88.199	-21.3060
224.000000	88.118	-21.0611
227.000000	88.064	-20.8689
230.000000	88.013	-20.6926
233.000000	87.960	-20.5200
236.000000	87.906	-20.3253
240.000000	87.839	-20.0386
243.000000	87.792	-19.8383
247.000000	87.728	-19.5979
250.000000	87.676	-19.4053
254.000000	87.608	-19.0897
258.000000	87.551	-18.7236
262.000000	87.505	-18.3707
265.000000	87.471	-18.1296
269.000000	87.421	-17.8145
272.000000	87.382	-17.5621
276.000000	87.334	-17.2012
280.000000	87.291	-16.8355
285.000000	87.248	-16.4083
290.000000	87.214	-16.0698
295.000000	87.176	-15.8268
300.000000	87.125	-15.5902
304.000000	87.082	-15.3622
307.000000	87.049	-15.1718
311.000000	87.007	-14.9102
315.000000	86.966	-14.6464
320.000000	86.913	-14.2943
325.000000	86.860	-13.9061
330.000000	86.813	-13.5054
335.000000	86.773	-13.1177
340.000000	86.735	-12.7493
345.000000	86.697	-12.3880
350.000000	86.659	-12.0205
355.000000	86.621	-11.6464
360.000000	86.585	-11.2697
365.000000	86.550	-10.8928
370.000000	86.516	-10.5166
375.000000	86.484	-10.1398
382.000000	86.440	-9.6106
387.000000	86.412	-9.2316
395.000000	86.369	-8.6234
400.000000	86.345	-8.2461
406.000000	86.318	-7.8049
412.000000	86.291	-7.3763
418.000000	86.263	-6.9415
425.000000	86.231	-6.4040
431.000000	86.210	-5.9263
437.000000	86.194	-5.4587
444.000000	86.183	-4.9432
450.000000	86.177	-4.5427
455.000000	86.173	-4.2545
462.000000	86.159	-3.9059
468.000000	86.138	-3.6042
475.000000	86.110	-3.2079
482.000000	86.083	-2.7822
487.000000	86.064	-2.4751
494.000000	86.037	-2.0267
500.000000	86.015	-1.6122
508.000000	85.993	-1.0491
515.000000	85.977	-0.5771
522.000000	85.960	-0.1154
530.000000	85.939	0.4295
538.000000	85.921	0.9939
545.000000	85.909	1.4890
552.000000	85.900	1.9812
560.000000	85.893	2.5309
570.000000	85.885	3.1920
580.000000	85.875	3.8470
590.000000	85.865	4.5126
600.000000	85.856	5.2074
608.000000	85.853	5.7728
615.000000	85.851	6.2617
622.000000	85.849	6.7543
630.000000	85.848	7.3408
640.000000	85.854	8.1014
650.000000	85.871	8.8638
660.000000	85.900	9.6035
670.000000	85.937	10.2618
680.000000	85.972	10.8303
690.000000	85.999	11.3654
700.000000	86.021	11.9106
710.000000	86.044	12.4722
720.000000	86.070	13.0242
730.000000	86.097	13.5483
740.000000	86.122	14.0433
750.000000	86.142	14.5179
762.000000	86.159	15.0885
775.000000	86.168	15.7490
788.000000	86.171	16.4830
800.000000	86.172	17.2659
812.000000	86.183	18.1660
825.000000	86.220	19.1902
838.000000	86.275	20.1501
850.000000	86.332	20.9646
862.000000	86.391	21.7475
875.000000	86.457	22.5868
885.000000	86.512	23.2277
900.000000	86.601	24.1664
912.000000	86.676	24.9040
925.000000	86.764	25.6905
938.000000	86.857	26.4467
950.000000	86.948	27.1073
962.000000	87.039	27.7394
975.000000	87.141	28.4074
988.000000	87.245	29.0643
1000.000000	87.345	29.6641
1015.000000	87.479	30.4107
1030.000000	87.630	31.1207
1044.000000	87.785	31.6805
1060.000000	87.967	32.1354
1075.000000	88.128	32.4109
1090.000000	88.277	32.6000
1106.000000	88.425	32.7410
1120.000000	88.545	32.8296
1138.000000	88.687	32.9219
1150.000000	88.775	32.9832
1172.000000	88.930	33.1211
1180.000000	88.985	33.1831
1206.000000	89.174	33.3633
1220.000000	89.276	33.3907
1241.000000	89.415	33.3494
1250.000000	89.469	33.3230
1265.000000	89.553	33.2880
1280.000000	89.631	33.2723
1315.000000	89.804	33.3126
1320.000000	89.829	33.3224
1340.000000	89.923	33.3627
1360.000000	90.011	33.4204
1380.000000	90.095	33.5281
1400.000000	90.182	33.7079
1430.000000	90.334	34.0103
1450.000000	90.444	34.1357
1475.000000	90.575	34.2205
1500.000000	90.698	34.2855
1525.000000	90.815	34.3723
1550.000000	90.932	34.5077
1575.000000	91.059	34.6781
1600.000000	91.200	34.7925
1625.000000	91.341	34.7984
1650.000000	91.473	34.7410
1675.000000	91.597	34.6716
1700.000000	91.717	34.6038
1725.000000	91.832	34.5310
1750.000000	91.942	34.4728
1775.000000	92.051	34.4681
1800.000000	92.170	34.5069
1825.000000	92.299	34.5138
1850.000000	92.433	34.4439
1875.000000	92.563	34.3098
1900.000000	92.688	34.1462
1925.000000	92.808	33.9889
1950.000000	92.932	33.8488
1975.000000	93.063	33.6873
2000.000000	93.199	33.4540
2030.000000	93.357	33.0710
2060.000000	93.506	32.6127
2090.000000	93.643	32.1079
2120.000000	93.769	31.5755
2140.000000	93.846	31.2270
2180.000000	93.995	30.5915
2200.000000	94.071	30.2844
2240.000000	94.225	29.6104
2270.000000	94.332	29.0490
2300.000000	94.431	28.4791
2330.000000	94.524	27.9344
2360.000000	94.619	27.3981
2400.000000	94.745	26.6178
2430.000000	94.832	25.9697
2470.000000	94.929	25.0592
2500.000000	94.985	24.3782
2540.000000	95.038	23.5568
2580.000000	95.080	22.9049
2620.000000	95.125	22.4008
2650.000000	95.162	22.1056
2690.000000	95.224	21.8413
2720.000000	95.289	21.7352
2760.000000	95.416	21.6089
2800.000000	95.585	21.3094
2850.000000	95.822	20.4771
2900.000000	96.032	19.1231
2950.000000	96.185	17.4871
3000.000000	96.283	15.8036
3040.000000	96.331	14.4923
3070.000000	96.351	13.5619
3110.000000	96.364	12.4281
3150.000000	96.372	11.4088
3200.000000	96.385	10.2217
3250.000000	96.397	9.0621
3300.000000	96.403	7.9184
3350.000000	96.403	6.8301
3400.000000	96.402	5.7869
3450.000000	96.400	4.7543
3500.000000	96.395	3.7550
3550.000000	96.392	2.7989
3600.000000	96.398	1.8373
3650.000000	96.408	0.8162
3700.000000	96.416	-0.2770
3750.000000	96.417	-1.4226
3820.000000	96.408	-3.1267
3870.000000	96.387	-4.4062
3950.000000	96.330	-6.4752
4000.000000	96.284	-7.7994
4060.000000	96.215	-9.4652
4120.000000	96.119	-11.1890
4180.000000	95.992	-12.9127
4250.000000	95.806	-14.8628
4310.000000	95.615	-16.4033
4370.000000	95.407	-17.7974
4440.000000	95.152	-19.2992
4500.000000	94.920	-20.5131
4550.000000	94.713	-21.4627
4620.000000	94.402	-22.6731
4680.000000	94.113	-23.5475
4750.000000	93.758	-24.3139
4820.000000	93.400	-24.8297
4870.000000	93.144	-25.0790
4940.000000	92.785	-25.2820
5000.000000	92.475	-25.3248
5080.000000	92.054	-25.1527
5150.000000	91.681	-24.7270
5220.000000	91.315	-24.0405
5300.000000	90.911	-22.9591
5380.000000	90.529	-21.5386
5450.000000	90.225	-19.9905
5520.000000	89.976	-18.2203
5600.000000	89.779	-16.2441
5700.000000	89.602	-14.3259
5800.000000	89.395	-12.7845
5900.000000	89.146	-11.0563
6000.000000	88.899	-8.9260
6080.000000	88.733	-6.9921
6150.000000	88.616	-5.2083
6220.000000	88.526	-3.3906
6300.000000	88.450	-1.2897
6400.000000	88.395	1.3882
6500.000000	88.392	4.1129
6600.000000	88.445	6.8231
6700.000000	88.554	9.4677
6800.000000	88.720	12.0365
6900.000000	88.953	14.4895
7000.000000	89.258	16.7230
7100.000000	89.631	18.6244
7200.000000	90.069	20.1094
7300.000000	90.568	21.0707
7400.000000	91.117	21.3427
7500.000000	91.688	20.7505
7620.000000	92.353	18.7217
7750.000000	92.971	14.7614
7880.000000	93.377	9.0405
8000.000000	93.478	2.7186
8120.000000	93.282	-3.7350
8250.000000	92.754	-9.8794
8380.000000	91.962	-14.3569
8500.000000	91.079	-16.6543
8620.000000	90.142	-17.2146
8750.000000	89.156	-16.1470
8850.000000	88.463	-14.3601
9000.000000	87.596	-10.5255
9120.000000	87.089	-6.8832
9250.000000	86.735	-2.8066
9380.000000	86.559	1.0533
9500.000000	86.513	4.1989
9620.000000	86.532	6.8750
9750.000000	86.583	9.3541
9880.000000	86.649	11.5882
10000.000000	86.728	13.5736
10150.000000	86.879	16.0837
10300.000000	87.132	18.6295
10440.000000	87.506	20.8752
10600.000000	88.135	22.9653
10750.000000	88.938	23.9714
10900.000000	89.910	23.3223
11060.000000	91.005	19.8112
11200.000000	91.842	13.6088
11380.000000	92.468	1.2926
11500.000000	92.480	-8.6360
11720.000000	91.561	-25.9506
11800.000000	90.956	-30.9010
12060.000000	88.347	-40.1235
12200.000000	86.758	-41.2771
12410.000000	84.437	-39.6719
12500.000000	83.517	-38.1577
12650.000000	82.118	-34.9213
12800.000000	80.895	-31.0720
13150.000000	78.671	-20.8395
13200.000000	78.416	-19.3024
13400.000000	77.532	-13.0941
13600.000000	76.842	-6.8939
13800.000000	76.328	-0.8311
14000.000000	75.975	4.9801
14300.000000	75.727	12.9521
14500.000000	75.737	17.5703
14750.000000	75.934	22.2959
15000.000000	76.323	25.4629
15250.000000	76.856	26.3640
15500.000000	77.396	24.1238
15750.000000	77.730	18.2868
16000.000000	77.643	9.5236
16250.000000	76.999	-0.2518
16500.000000	75.788	-8.7255
16750.000000	74.101	-14.2899
17000.000000	72.078	-16.4167
17250.000000	69.866	-15.3114
17500.000000	67.597	-11.4878
17750.000000	65.386	-5.5641
18000.000000	63.328	1.8245
18250.000000	61.482	10.0929
18500.000000	59.859	18.7472
18750.000000	58.440	27.4617
19000.000000	57.183	36.1313
19250.000000	56.034	44.7964
19500.000000	54.947	53.5342
19750.000000	53.890	62.4440
20000.000000	52.835	71.6941
