* Measurement data measured by REW V5.20
* Source: Mic in at front panel (Pink) (Realtek(R) Audio), MICROPHONE (Master Volume), L, volume: 0.250
* Format: 256k Log Swept Sine, 1 sweep at -12.0 dBFS with no timing reference
* Dated: Jan 7, 2022 11:35:40 AM
* REW Settings:
*  C-weighting compensation: Off
*  Target level: 75.0 dB
* Note: KZ EDS R
* Measurement: KZ EDS R
* Smoothing: 1/12 octave
* Frequency Step: 1/48 octave
* Start Frequency: 20.000 Hz
*
* Freq(Hz)	SPL(dB)	Phase(degrees)
20.000000	106.5	21.5338
20.299999	106.5	20.8752
20.600000	106.5	20.2333
20.900000	106.5	19.6095
21.200001	106.5	19.0026
21.400000	106.5	18.6054
21.799999	106.5	17.8250
22.000000	106.5	17.4399
22.400000	106.5	16.6774
22.700001	106.5	16.1130
23.000000	106.5	15.5568
23.299999	106.5	15.0109
23.600000	106.5	14.4763
24.000000	106.4	13.7814
24.299999	106.4	13.2726
24.700001	106.4	12.6083
25.000000	106.4	12.1190
25.400000	106.4	11.4777
25.799999	106.4	10.8490
26.200001	106.4	10.2348
26.500000	106.4	9.7847
26.900000	106.4	9.1985
27.200001	106.4	8.7676
27.600000	106.4	8.2009
28.000000	106.4	7.6380
28.500000	106.3	6.9355
29.000000	106.3	6.2401
29.500000	106.3	5.5645
30.000000	106.3	4.9185
30.400000	106.3	4.4219
30.700001	106.3	4.0578
31.100000	106.2	3.5781
31.500000	106.2	3.1013
32.000000	106.2	2.5090
32.500000	106.2	1.9244
33.000000	106.2	1.3517
33.500000	106.2	0.7906
34.000000	106.1	0.2383
34.500000	106.1	-0.3075
35.000000	106.1	-0.8468
35.500000	106.1	-1.3773
36.000000	106.0	-1.8974
36.500000	106.0	-2.4067
37.000000	106.0	-2.9055
37.500000	106.0	-3.3936
38.200001	105.9	-4.0569
38.700001	105.9	-4.5171
39.500000	105.9	-5.2354
40.000000	105.8	-5.6746
40.599998	105.8	-6.1906
41.200001	105.8	-6.6925
41.799999	105.7	-7.1821
42.500000	105.7	-7.7428
43.099998	105.7	-8.2164
43.700001	105.6	-8.6825
44.400002	105.6	-9.2139
45.000000	105.6	-9.6586
45.500000	105.5	-10.0226
46.200001	105.5	-10.5234
46.799999	105.5	-10.9438
47.500000	105.4	-11.4219
48.200001	105.4	-11.8859
48.700001	105.3	-12.2098
49.400002	105.3	-12.6547
50.000000	105.3	-13.0293
50.799999	105.2	-13.5189
51.500000	105.2	-13.9347
52.200001	105.1	-14.3361
53.000000	105.1	-14.7770
53.799999	105.0	-15.2001
54.500000	105.0	-15.5576
55.200001	105.0	-15.9074
56.000000	104.9	-16.3081
57.000000	104.9	-16.8291
58.000000	104.9	-17.3774
59.000000	104.8	-17.9366
60.000000	104.8	-18.4772
60.799999	104.7	-18.8746
61.500000	104.7	-19.1973
62.200001	104.6	-19.5081
63.000000	104.6	-19.8607
64.000000	104.5	-20.3041
65.000000	104.4	-20.7459
66.000000	104.4	-21.1753
67.000000	104.3	-21.5835
68.000000	104.2	-21.9668
69.000000	104.2	-22.3301
70.000000	104.1	-22.6849
71.000000	104.0	-23.0295
72.000000	104.0	-23.3472
73.000000	103.9	-23.6317
74.000000	103.8	-23.8822
75.000000	103.8	-24.0919
76.199997	103.7	-24.2900
77.500000	103.6	-24.4645
78.800003	103.6	-24.6874
80.000000	103.6	-25.0067
81.199997	103.5	-25.4221
82.500000	103.5	-25.9506
83.800003	103.4	-26.5356
85.000000	103.4	-27.0553
86.199997	103.3	-27.5139
87.500000	103.2	-27.9474
88.500000	103.2	-28.2482
90.000000	103.1	-28.6522
91.199997	103.0	-28.9321
92.500000	102.9	-29.2183
93.800003	102.9	-29.5250
95.000000	102.8	-29.8143
96.199997	102.7	-30.0762
97.500000	102.7	-30.3218
98.800003	102.6	-30.5452
100.000000	102.5	-30.7477
101.500000	102.4	-31.0017
103.000000	102.3	-31.2525
104.400002	102.3	-31.4703
106.000000	102.2	-31.6826
107.500000	102.1	-31.8500
109.000000	102.0	-32.0112
110.599998	101.9	-32.1930
112.000000	101.9	-32.3445
113.800003	101.8	-32.4508
115.000000	101.8	-32.4050
117.199997	101.7	-32.0607
118.000000	101.7	-31.9210
120.599998	101.6	-31.9454
122.000000	101.5	-32.2546
124.099998	101.4	-32.7390
125.000000	101.3	-32.9095
126.500000	101.2	-33.1395
128.000000	101.1	-33.3076
131.500000	101.0	-33.5349
132.000000	101.0	-33.5626
134.000000	100.9	-33.6948
136.000000	100.8	-33.8644
138.000000	100.8	-34.0458
140.000000	100.7	-34.1960
143.000000	100.6	-34.3557
145.000000	100.5	-34.4458
147.500000	100.4	-34.5678
150.000000	100.3	-34.7133
152.500000	100.1	-34.8333
155.000000	100.0	-34.8694
157.500000	99.9	-34.8315
160.000000	99.8	-34.7812
162.500000	99.7	-34.7588
165.000000	99.6	-34.7648
167.500000	99.5	-34.8099
170.000000	99.4	-34.8622
172.500000	99.3	-34.8658
175.000000	99.2	-34.8307
177.500000	99.2	-34.7896
180.000000	99.1	-34.7469
182.500000	99.0	-34.6987
185.000000	98.9	-34.6503
187.500000	98.8	-34.6025
190.000000	98.7	-34.5464
192.500000	98.6	-34.4766
195.000000	98.6	-34.3957
197.500000	98.5	-34.3065
200.000000	98.4	-34.2045
203.000000	98.3	-34.0595
206.000000	98.2	-33.9070
209.000000	98.1	-33.7744
212.000000	98.0	-33.6613
214.000000	98.0	-33.5815
218.000000	97.9	-33.3649
220.000000	97.8	-33.2247
224.000000	97.7	-32.9247
227.000000	97.6	-32.7177
230.000000	97.5	-32.5321
233.000000	97.5	-32.3585
236.000000	97.4	-32.1913
240.000000	97.3	-31.9767
243.000000	97.2	-31.8165
247.000000	97.1	-31.5824
250.000000	97.0	-31.3730
254.000000	96.9	-31.0300
258.000000	96.8	-30.6430
262.000000	96.7	-30.2905
265.000000	96.7	-30.0618
269.000000	96.6	-29.7627
272.000000	96.5	-29.5176
276.000000	96.4	-29.1589
280.000000	96.3	-28.7806
285.000000	96.3	-28.3206
290.000000	96.2	-27.9409
295.000000	96.1	-27.6532
300.000000	96.0	-27.3692
304.000000	95.9	-27.1032
307.000000	95.9	-26.8838
311.000000	95.8	-26.5797
315.000000	95.7	-26.2719
320.000000	95.6	-25.8680
325.000000	95.5	-25.4258
330.000000	95.4	-24.9632
335.000000	95.4	-24.5082
340.000000	95.3	-24.0699
345.000000	95.2	-23.6360
350.000000	95.1	-23.1921
355.000000	95.0	-22.7350
360.000000	95.0	-22.2680
365.000000	94.9	-21.7939
370.000000	94.8	-21.3115
375.000000	94.7	-20.8198
382.000000	94.6	-20.1177
387.000000	94.6	-19.6077
395.000000	94.5	-18.7872
400.000000	94.4	-18.2808
406.000000	94.3	-17.6880
412.000000	94.3	-17.1100
418.000000	94.2	-16.5263
425.000000	94.1	-15.8116
431.000000	94.0	-15.1759
437.000000	94.0	-14.5417
444.000000	93.9	-13.8206
450.000000	93.9	-13.2357
455.000000	93.8	-12.7887
462.000000	93.8	-12.2110
468.000000	93.7	-11.7084
475.000000	93.7	-11.0759
482.000000	93.6	-10.4136
487.000000	93.5	-9.9364
494.000000	93.5	-9.2472
500.000000	93.4	-8.6229
508.000000	93.3	-7.7744
515.000000	93.3	-7.0482
522.000000	93.2	-6.3273
530.000000	93.2	-5.4780
538.000000	93.1	-4.6000
545.000000	93.1	-3.8252
552.000000	93.0	-3.0491
560.000000	93.0	-2.1699
570.000000	92.9	-1.0895
580.000000	92.9	0.0000
590.000000	92.8	1.1178
600.000000	92.8	2.2715
608.000000	92.8	3.2023
615.000000	92.7	4.0072
622.000000	92.7	4.8109
630.000000	92.7	5.7489
640.000000	92.7	6.9502
650.000000	92.7	8.1616
660.000000	92.7	9.3584
670.000000	92.7	10.4821
680.000000	92.7	11.5270
690.000000	92.7	12.5507
700.000000	92.7	13.5984
710.000000	92.7	14.6779
720.000000	92.7	15.7681
730.000000	92.7	16.8580
740.000000	92.8	17.9526
750.000000	92.8	19.0593
762.000000	92.8	20.4120
775.000000	92.9	21.9072
788.000000	93.0	23.3970
800.000000	93.1	24.7052
812.000000	93.2	25.8773
825.000000	93.3	26.9203
838.000000	93.4	27.7142
850.000000	93.5	28.3297
862.000000	93.5	29.0014
875.000000	93.5	29.9544
885.000000	93.5	30.8709
900.000000	93.6	32.4007
912.000000	93.7	33.6162
925.000000	93.8	34.8325
938.000000	93.9	35.9136
950.000000	94.1	36.7991
962.000000	94.2	37.6042
975.000000	94.3	38.4186
988.000000	94.4	39.1945
1000.000000	94.5	39.8922
1015.000000	94.7	40.7650
1030.000000	94.8	41.6277
1044.000000	95.0	42.3719
1060.000000	95.1	43.1037
1075.000000	95.3	43.7147
1090.000000	95.4	44.3159
1106.000000	95.6	44.9726
1120.000000	95.7	45.5577
1138.000000	95.9	46.3021
1150.000000	96.0	46.7723
1172.000000	96.2	47.5435
1180.000000	96.3	47.7932
1206.000000	96.6	48.4577
1220.000000	96.8	48.6959
1241.000000	97.0	48.9495
1250.000000	97.0	49.0495
1265.000000	97.2	49.2300
1280.000000	97.3	49.4358
1315.000000	97.6	49.9993
1320.000000	97.6	50.0830
1340.000000	97.8	50.4147
1360.000000	97.9	50.7570
1380.000000	98.1	51.1417
1400.000000	98.3	51.5894
1430.000000	98.6	52.2747
1450.000000	98.8	52.6421
1475.000000	99.0	53.0099
1500.000000	99.3	53.3300
1525.000000	99.5	53.6410
1550.000000	99.7	53.9680
1575.000000	99.9	54.2933
1600.000000	100.1	54.5200
1625.000000	100.4	54.5912
1650.000000	100.6	54.5483
1675.000000	100.8	54.4398
1700.000000	101.0	54.2776
1725.000000	101.2	54.0542
1750.000000	101.4	53.7865
1775.000000	101.6	53.5067
1800.000000	101.9	53.1942
1825.000000	102.1	52.7603
1850.000000	102.3	52.1507
1875.000000	102.5	51.3817
1900.000000	102.7	50.5037
1925.000000	102.9	49.5711
1950.000000	103.2	48.6060
1975.000000	103.4	47.5686
2000.000000	103.6	46.4001
2030.000000	103.8	44.8185
2060.000000	104.0	43.1248
2090.000000	104.2	41.4372
2120.000000	104.3	39.8512
2140.000000	104.4	38.8742
2180.000000	104.6	37.0276
2200.000000	104.7	36.0511
2240.000000	104.8	33.7640
2270.000000	105.0	31.7697
2300.000000	105.0	29.6749
2330.000000	105.0	27.6029
2360.000000	105.0	25.5826
2400.000000	105.0	22.9189
2430.000000	104.9	20.9615
2470.000000	104.7	18.5273
2500.000000	104.6	16.9252
2540.000000	104.3	15.1998
2580.000000	104.0	13.9606
2620.000000	103.8	13.0604
2650.000000	103.6	12.5173
2690.000000	103.4	11.9435
2720.000000	103.2	11.6437
2760.000000	103.0	11.4061
2800.000000	102.8	11.2937
2850.000000	102.5	11.2521
2900.000000	102.3	11.2859
2950.000000	102.1	11.4623
3000.000000	101.9	11.8176
3040.000000	101.7	12.2024
3070.000000	101.6	12.5517
3110.000000	101.5	13.1140
3150.000000	101.4	13.7677
3200.000000	101.2	14.6339
3250.000000	101.1	15.4877
3300.000000	101.0	16.3307
3350.000000	100.9	17.2361
3400.000000	100.8	18.2462
3450.000000	100.7	19.3790
3500.000000	100.7	20.6798
3550.000000	100.6	22.1408
3600.000000	100.6	23.6683
3650.000000	100.7	25.1635
3700.000000	100.7	26.5924
3750.000000	100.8	27.9814
3820.000000	101.0	29.8821
3870.000000	101.1	31.2288
3950.000000	101.3	33.4106
4000.000000	101.5	34.7282
4060.000000	101.7	36.1580
4120.000000	102.0	37.3848
4180.000000	102.3	38.3998
4250.000000	102.7	39.2976
4310.000000	103.1	39.8424
4370.000000	103.5	40.1561
4440.000000	104.0	40.1023
4500.000000	104.5	39.5933
4550.000000	104.8	38.7977
4620.000000	105.4	37.0471
4680.000000	105.8	34.9233
4750.000000	106.3	31.7005
4820.000000	106.7	27.6385
4870.000000	106.9	24.2387
4940.000000	107.0	18.9245
5000.000000	107.1	14.0634
5080.000000	106.9	7.6034
5150.000000	106.5	2.4114
5220.000000	106.0	-2.0622
5300.000000	105.3	-6.1395
5380.000000	104.5	-9.0550
5450.000000	103.7	-10.5936
5520.000000	102.8	-10.9769
5600.000000	101.7	-9.4333
5700.000000	100.5	-3.2288
5800.000000	100.0	7.1349
5900.000000	100.7	14.9130
6000.000000	101.4	15.1575
6080.000000	101.4	12.8788
6150.000000	101.2	11.3989
6220.000000	101.0	10.9656
6300.000000	100.6	11.5884
6400.000000	100.3	13.4893
6500.000000	100.1	16.0949
6600.000000	100.0	19.0303
6700.000000	100.0	22.0927
6800.000000	100.1	25.1982
6900.000000	100.3	28.2705
7000.000000	100.7	31.1896
7100.000000	101.2	33.8308
7200.000000	101.8	36.0796
7300.000000	102.5	37.7523
7400.000000	103.5	38.5270
7500.000000	104.5	37.9570
7620.000000	105.8	34.7431
7750.000000	107.1	27.1313
7880.000000	107.9	14.9229
8000.000000	108.1	1.1473
8120.000000	107.5	-12.1035
8250.000000	106.4	-23.0362
8380.000000	104.8	-29.4216
8500.000000	103.2	-31.8014
8620.000000	101.7	-31.7567
8750.000000	100.3	-29.9332
8850.000000	99.3	-27.7004
9000.000000	98.1	-23.4578
9120.000000	97.4	-19.5710
9250.000000	96.8	-15.0562
9380.000000	96.3	-10.3228
9500.000000	96.1	-5.8505
9620.000000	95.9	-1.3618
9750.000000	96.0	3.4589
9880.000000	96.3	8.1442
10000.000000	96.7	12.2100
10150.000000	97.6	16.6659
10300.000000	98.9	19.8528
10440.000000	100.5	20.6971
10600.000000	102.3	17.3158
10750.000000	103.8	7.9982
10900.000000	104.7	-7.6396
11060.000000	104.6	-27.6973
11200.000000	103.6	-43.0872
11380.000000	101.5	-55.2427
11500.000000	99.7	-58.5302
11720.000000	96.4	-57.7725
11800.000000	95.2	-56.1346
12060.000000	92.0	-48.2910
12200.000000	90.6	-43.1763
12410.000000	89.0	-34.9175
12500.000000	88.5	-31.2448
12650.000000	87.7	-25.0156
12800.000000	87.1	-18.7037
13150.000000	86.1	-3.9045
13200.000000	86.0	-1.7955
13400.000000	85.9	6.5948
13600.000000	85.9	14.8755
13800.000000	86.1	22.9690
14000.000000	86.7	30.7760
14300.000000	88.1	41.6152
14500.000000	89.5	47.8318
14750.000000	91.9	53.4248
15000.000000	94.6	54.5926
15250.000000	97.2	48.3066
15500.000000	99.0	32.6029
15750.000000	99.7	10.1876
16000.000000	99.4	-12.5520
16250.000000	98.5	-32.3943
16500.000000	97.2	-50.4957
16750.000000	95.6	-67.0037
17000.000000	93.5	-79.3361
17250.000000	90.8	-86.0548
17500.000000	87.9	-88.6383
17750.000000	85.0	-88.6102
18000.000000	82.0	-85.9168
18250.000000	79.2	-80.2358
18500.000000	76.4	-71.8923
18750.000000	73.9	-61.5905
19000.000000	71.6	-50.0541
19250.000000	69.7	-38.0151
19500.000000	68.3	-26.4642
19750.000000	67.4	-16.9123
