* Measurement data measured by REW V5.20.13
* Source: Mic in at front panel (Pink) (Realtek(R) Audio), no input selected, L, volume: 0.250
* Format: 256k Log Swept Sine, 1 sweep at -12.0 dBFS with no timing reference
* Dated: Feb 14, 2023 2:03:13 AM
* REW Settings:
*  C-weighting compensation: Off
*  Target level: 75.0 dB
* Note: KZ Linlong R2
* Measurement: KZ Linlong R2
* Smoothing: 1/12 octave
* Frequency Step: 1/48 octave
* Start Frequency: 20.000 Hz
*
* Freq(Hz)	SPL(dB)	Phase(degrees)
20.000000	103.584	170.9462
20.299999	103.542	170.3269
20.600000	103.494	169.7189
20.900000	103.444	169.1230
21.200001	103.392	168.5403
21.400000	103.358	168.1593
21.799999	103.295	167.4142
22.000000	103.265	167.0493
22.400000	103.209	166.3334
22.700001	103.169	165.8073
23.000000	103.130	165.2903
23.299999	103.091	164.7825
23.600000	103.053	164.2843
24.000000	103.001	163.6355
24.299999	102.961	163.1603
24.700001	102.906	162.5413
25.000000	102.862	162.0873
25.400000	102.801	161.4949
25.799999	102.740	160.9169
26.200001	102.679	160.3535
26.500000	102.632	159.9409
26.900000	102.568	159.4046
27.200001	102.519	159.0128
27.600000	102.451	158.5035
28.000000	102.384	158.0081
28.500000	102.302	157.4053
29.000000	102.224	156.8186
29.500000	102.147	156.2472
30.000000	102.072	155.6914
30.400000	102.012	155.2580
30.700001	101.969	154.9390
31.100000	101.912	154.5211
31.500000	101.856	154.1107
32.000000	101.783	153.6067
32.500000	101.708	153.1122
33.000000	101.631	152.6284
33.500000	101.555	152.1570
34.000000	101.482	151.6994
34.500000	101.410	151.2554
35.000000	101.341	150.8244
35.500000	101.274	150.4059
36.000000	101.210	150.0002
36.500000	101.147	149.6076
37.000000	101.083	149.2283
37.500000	101.016	148.8628
38.200001	100.913	148.3747
38.700001	100.834	148.0411
39.500000	100.704	147.5260
40.000000	100.624	147.2154
40.599998	100.532	146.8573
41.200001	100.446	146.5139
41.799999	100.364	146.1787
42.500000	100.273	145.7952
43.099998	100.197	145.4810
43.700001	100.122	145.1846
44.400002	100.036	144.8511
45.000000	99.962	144.5667
45.500000	99.899	144.3318
46.200001	99.809	144.0132
46.799999	99.731	143.7535
47.500000	99.637	143.4669
48.200001	99.540	143.1979
48.700001	99.469	143.0146
49.400002	99.371	142.7667
50.000000	99.290	142.5635
50.799999	99.190	142.3130
51.500000	99.110	142.1105
52.200001	99.033	141.9135
53.000000	98.945	141.6915
53.799999	98.855	141.4810
54.500000	98.780	141.3109
55.200001	98.707	141.1516
56.000000	98.627	140.9762
57.000000	98.528	140.7555
58.000000	98.427	140.5256
59.000000	98.323	140.2879
60.000000	98.218	140.0508
60.799999	98.134	139.8701
61.500000	98.060	139.7223
62.200001	97.988	139.5856
63.000000	97.908	139.4445
64.000000	97.810	139.2928
65.000000	97.711	139.1649
66.000000	97.610	139.0532
67.000000	97.509	138.9583
68.000000	97.410	138.8809
69.000000	97.316	138.8002
70.000000	97.225	138.6935
71.000000	97.134	138.5717
72.000000	97.045	138.4594
73.000000	96.962	138.3662
74.000000	96.885	138.2946
75.000000	96.810	138.2441
76.199997	96.720	138.1996
77.500000	96.620	138.1482
78.800003	96.520	138.0755
80.000000	96.431	137.9855
81.199997	96.345	137.8798
82.500000	96.255	137.7667
83.800003	96.167	137.6749
85.000000	96.084	137.6091
86.199997	95.991	137.5568
87.500000	95.876	137.5412
88.500000	95.782	137.5685
90.000000	95.643	137.6213
91.199997	95.540	137.6377
92.500000	95.440	137.6336
93.800003	95.351	137.6243
95.000000	95.274	137.6404
96.199997	95.199	137.7108
97.500000	95.113	137.8465
98.800003	95.021	138.0015
100.000000	94.930	138.1183
101.500000	94.816	138.2010
103.000000	94.716	138.2274
104.400002	94.642	138.2358
106.000000	94.571	138.2896
107.500000	94.504	138.4055
109.000000	94.423	138.5340
110.599998	94.324	138.6171
112.000000	94.243	138.6404
113.800003	94.175	138.7184
115.000000	94.161	138.9135
117.199997	94.195	139.6894
118.000000	94.218	140.0030
120.599998	94.198	140.2635
122.000000	94.060	140.0175
124.099998	93.775	139.7568
125.000000	93.663	139.7375
126.500000	93.517	139.8276
128.000000	93.417	140.0323
131.500000	93.230	140.5754
132.000000	93.202	140.6244
134.000000	93.091	140.7179
136.000000	92.993	140.7502
138.000000	92.912	140.8949
140.000000	92.838	141.1774
143.000000	92.713	141.6221
145.000000	92.616	141.9096
147.500000	92.492	142.3921
150.000000	92.361	143.0737
152.500000	92.221	143.8763
155.000000	92.109	144.5942
157.500000	92.047	145.0162
160.000000	92.009	145.2881
162.500000	91.963	145.6201
165.000000	91.895	146.0469
167.500000	91.813	146.5347
170.000000	91.725	147.0765
172.500000	91.630	147.6588
175.000000	91.536	148.2315
177.500000	91.456	148.7709
180.000000	91.392	149.2602
182.500000	91.335	149.6239
185.000000	91.288	149.8285
187.500000	91.278	150.0007
190.000000	91.324	150.3079
192.500000	91.396	150.7399
195.000000	91.449	151.1084
197.500000	91.466	151.2453
200.000000	91.457	151.1788
203.000000	91.437	151.1273
206.000000	91.416	151.3183
209.000000	91.391	151.5988
212.000000	91.351	151.8008
214.000000	91.319	151.8990
218.000000	91.251	152.1483
220.000000	91.222	152.3086
224.000000	91.168	152.5215
227.000000	91.117	152.5475
230.000000	91.059	152.5598
233.000000	91.005	152.6409
236.000000	90.955	152.7751
240.000000	90.882	152.9687
243.000000	90.819	153.1266
247.000000	90.727	153.3857
250.000000	90.661	153.6305
254.000000	90.583	154.0175
258.000000	90.519	154.4188
262.000000	90.460	154.7679
265.000000	90.411	155.0006
269.000000	90.338	155.3215
272.000000	90.281	155.5902
276.000000	90.216	155.9794
280.000000	90.166	156.3881
285.000000	90.119	156.9017
290.000000	90.080	157.3498
295.000000	90.034	157.7100
300.000000	89.978	158.0655
304.000000	89.935	158.3779
307.000000	89.905	158.6232
311.000000	89.866	158.9474
315.000000	89.824	159.2571
320.000000	89.766	159.6458
325.000000	89.709	160.0714
330.000000	89.658	160.5284
335.000000	89.610	160.9853
340.000000	89.562	161.4128
345.000000	89.514	161.8144
350.000000	89.469	162.2213
355.000000	89.429	162.6441
360.000000	89.390	163.0765
365.000000	89.348	163.5158
370.000000	89.304	163.9587
375.000000	89.263	164.3998
382.000000	89.212	165.0082
387.000000	89.180	165.4389
395.000000	89.131	166.1296
400.000000	89.101	166.5613
406.000000	89.065	167.0718
412.000000	89.029	167.5706
418.000000	88.994	168.0735
425.000000	88.957	168.6887
431.000000	88.932	169.2331
437.000000	88.913	169.7672
444.000000	88.896	170.3596
450.000000	88.885	170.8257
455.000000	88.876	171.1691
462.000000	88.857	171.5963
468.000000	88.833	171.9657
475.000000	88.803	172.4393
482.000000	88.774	172.9399
487.000000	88.753	173.2994
494.000000	88.721	173.8196
500.000000	88.695	174.2948
508.000000	88.669	174.9385
515.000000	88.649	175.4807
522.000000	88.629	176.0126
530.000000	88.604	176.6385
538.000000	88.582	177.2847
545.000000	88.568	177.8511
552.000000	88.556	178.4146
560.000000	88.546	179.0449
570.000000	88.534	179.8036
580.000000	88.521	-179.4419
590.000000	88.504	-178.6724
600.000000	88.489	-177.8767
608.000000	88.484	-177.2338
615.000000	88.482	-176.6774
622.000000	88.480	-176.1164
630.000000	88.479	-175.4498
640.000000	88.483	-174.5855
650.000000	88.495	-173.7160
660.000000	88.522	-172.8689
670.000000	88.560	-172.1026
680.000000	88.596	-171.4208
690.000000	88.622	-170.7632
700.000000	88.642	-170.0837
710.000000	88.662	-169.3740
720.000000	88.687	-168.6550
730.000000	88.715	-167.9376
740.000000	88.747	-167.2178
750.000000	88.780	-166.4930
762.000000	88.824	-165.6189
775.000000	88.879	-164.6751
788.000000	88.945	-163.7438
800.000000	89.016	-162.8934
812.000000	89.102	-162.0711
825.000000	89.212	-161.3026
838.000000	89.323	-160.7582
850.000000	89.402	-160.4213
862.000000	89.446	-160.0814
875.000000	89.472	-159.4937
885.000000	89.508	-158.8647
900.000000	89.613	-157.8925
912.000000	89.733	-157.3059
925.000000	89.875	-156.9987
938.000000	90.003	-157.1247
950.000000	90.066	-157.6222
962.000000	90.029	-158.2348
975.000000	89.862	-158.3730
988.000000	89.641	-157.3160
1000.000000	89.522	-155.3896
1015.000000	89.574	-152.7120
1030.000000	89.778	-150.6200
1044.000000	90.009	-149.3530
1060.000000	90.261	-148.5045
1075.000000	90.466	-148.0294
1090.000000	90.647	-147.6845
1106.000000	90.823	-147.3787
1120.000000	90.965	-147.1388
1138.000000	91.135	-146.8451
1150.000000	91.239	-146.6496
1172.000000	91.423	-146.2758
1180.000000	91.489	-146.1333
1206.000000	91.719	-145.7136
1220.000000	91.847	-145.5725
1241.000000	92.028	-145.4692
1250.000000	92.099	-145.4446
1265.000000	92.211	-145.4091
1280.000000	92.314	-145.3702
1315.000000	92.538	-145.2382
1320.000000	92.569	-145.2169
1340.000000	92.691	-145.1304
1360.000000	92.809	-145.0258
1380.000000	92.923	-144.8713
1400.000000	93.042	-144.6457
1430.000000	93.250	-144.2768
1450.000000	93.402	-144.1065
1475.000000	93.598	-143.9659
1500.000000	93.802	-143.8478
1525.000000	94.019	-143.7101
1550.000000	94.247	-143.5253
1575.000000	94.477	-143.3086
1600.000000	94.677	-143.1539
1625.000000	94.805	-143.1156
1650.000000	94.848	-143.1491
1675.000000	94.837	-143.2032
1700.000000	94.821	-143.2644
1725.000000	94.839	-143.3394
1750.000000	94.907	-143.4100
1775.000000	95.024	-143.4376
1800.000000	95.183	-143.4297
1825.000000	95.368	-143.4579
1850.000000	95.561	-143.5643
1875.000000	95.753	-143.7348
1900.000000	95.938	-143.9334
1925.000000	96.118	-144.1230
1950.000000	96.298	-144.2883
1975.000000	96.480	-144.4600
2000.000000	96.661	-144.6766
2030.000000	96.873	-144.9831
2060.000000	97.078	-145.2830
2090.000000	97.287	-145.5559
2120.000000	97.510	-145.8471
2140.000000	97.668	-146.0874
2180.000000	98.006	-146.7962
2200.000000	98.180	-147.3218
2240.000000	98.504	-148.7434
2270.000000	98.709	-150.0203
2300.000000	98.879	-151.3292
2330.000000	99.026	-152.5777
2360.000000	99.169	-153.7683
2400.000000	99.360	-155.3891
2430.000000	99.501	-156.7084
2470.000000	99.670	-158.6551
2500.000000	99.769	-160.2378
2540.000000	99.852	-162.3837
2580.000000	99.890	-164.4175
2620.000000	99.901	-166.2973
2650.000000	99.897	-167.6109
2690.000000	99.882	-169.2290
2720.000000	99.871	-170.3544
2760.000000	99.862	-171.8185
2800.000000	99.854	-173.3431
2850.000000	99.825	-175.3707
2900.000000	99.756	-177.4527
2950.000000	99.639	-179.4375
3000.000000	99.484	178.7599
3040.000000	99.339	177.4619
3070.000000	99.223	176.5977
3110.000000	99.063	175.6266
3150.000000	98.913	174.8483
3200.000000	98.750	174.0461
3250.000000	98.611	173.3130
3300.000000	98.485	172.5728
3350.000000	98.358	171.8140
3400.000000	98.217	171.0250
3450.000000	98.042	170.2455
3500.000000	97.824	169.6352
3550.000000	97.579	169.3420
3600.000000	97.337	169.3808
3650.000000	97.123	169.6552
3700.000000	96.945	170.0495
3750.000000	96.805	170.4893
3820.000000	96.664	171.0821
3870.000000	96.591	171.4848
3950.000000	96.511	172.1689
4000.000000	96.483	172.5835
4060.000000	96.457	172.9871
4120.000000	96.420	173.2766
4180.000000	96.359	173.4807
4250.000000	96.250	173.6603
4310.000000	96.124	173.8575
4370.000000	95.985	174.1458
4440.000000	95.826	174.5615
4500.000000	95.696	174.9561
4550.000000	95.594	175.3130
4620.000000	95.460	175.8545
4680.000000	95.355	176.3799
4750.000000	95.254	177.0852
4820.000000	95.187	177.8266
4870.000000	95.160	178.3258
4940.000000	95.144	178.9479
5000.000000	95.142	179.4047
5080.000000	95.141	179.9580
5150.000000	95.137	-179.5340
5220.000000	95.134	-178.9947
5300.000000	95.131	-178.3883
5380.000000	95.118	-177.8340
5450.000000	95.087	-177.3893
5520.000000	95.034	-176.9304
5600.000000	94.957	-176.3419
5700.000000	94.861	-175.5326
5800.000000	94.779	-174.7089
5900.000000	94.709	-173.8791
6000.000000	94.654	-172.9654
6080.000000	94.626	-172.1636
6150.000000	94.616	-171.4329
6220.000000	94.618	-170.6944
6300.000000	94.633	-169.8349
6400.000000	94.671	-168.6997
6500.000000	94.739	-167.4971
6600.000000	94.843	-166.2865
6700.000000	94.982	-165.1190
6800.000000	95.159	-164.0005
6900.000000	95.381	-162.9598
7000.000000	95.649	-162.0802
7100.000000	95.959	-161.4484
7200.000000	96.310	-161.1220
7300.000000	96.706	-161.1801
7400.000000	97.145	-161.7586
7500.000000	97.609	-163.0037
7620.000000	98.163	-165.5372
7750.000000	98.698	-169.7591
7880.000000	99.078	-175.6638
8000.000000	99.211	177.5980
8120.000000	99.089	170.1994
8250.000000	98.656	162.2834
8380.000000	97.933	155.3430
8500.000000	97.062	150.3614
8620.000000	96.074	146.9061
8750.000000	94.952	144.7411
8850.000000	94.093	144.0411
9000.000000	92.863	144.2794
9120.000000	91.952	145.3262
9250.000000	91.044	147.1061
9380.000000	90.213	149.4294
9500.000000	89.519	151.9443
9620.000000	88.891	154.7231
9750.000000	88.280	157.9800
9880.000000	87.740	161.4438
10000.000000	87.304	164.7699
10150.000000	86.839	169.0641
10300.000000	86.459	173.4785
10440.000000	86.181	177.6506
10600.000000	85.952	-177.5530
10750.000000	85.819	-173.0643
10900.000000	85.766	-168.6407
11060.000000	85.815	-164.0362
11200.000000	85.960	-160.1643
11380.000000	86.288	-155.5123
11500.000000	86.595	-152.6781
11720.000000	87.354	-148.2777
11800.000000	87.694	-147.0108
12060.000000	89.021	-144.6785
12200.000000	89.840	-144.9911
12410.000000	91.066	-148.3754
12500.000000	91.533	-151.0930
12650.000000	92.148	-157.3574
12800.000000	92.480	-165.4229
13150.000000	91.895	174.2310
13200.000000	91.662	171.7652
13400.000000	90.442	164.0946
13600.000000	88.910	160.1033
13800.000000	87.252	159.2213
14000.000000	85.635	160.5602
14300.000000	83.580	165.0901
14500.000000	82.559	169.0457
14750.000000	81.666	174.4779
15000.000000	81.111	-179.9110
15250.000000	80.785	-174.4124
15500.000000	80.600	-169.3004
15750.000000	80.539	-164.9212
16000.000000	80.706	-161.8227
16250.000000	81.272	-160.9268
16500.000000	82.220	-163.6542
16750.000000	83.207	-171.5979
17000.000000	83.759	174.7662
17250.000000	83.530	157.7363
17500.000000	82.415	141.8960
17750.000000	80.532	130.9457
18000.000000	78.115	125.7436
18250.000000	75.406	125.2569
18500.000000	72.605	128.1596
18750.000000	69.837	133.5689
19000.000000	67.158	141.0804
19250.000000	64.586	150.5557
19500.000000	62.141	161.8347
19750.000000	59.875	174.5075
20000.000000	57.873	-172.0963
