* Measurement data measured by REW V5.20.13
* Source: Mic in at front panel (Pink) (Realtek(R) Audio), no input selected, L, volume: 0.250
* Format: 256k Log Swept Sine, 1 sweep at -12.0 dBFS with no timing reference
* Dated: Feb 14, 2023 1:11:29 AM
* REW Settings:
*  C-weighting compensation: Off
*  Target level: 75.0 dB
* Note: KZ Ling Long MP L
* Measurement: KZ EDX Ultra Feb 14
* Smoothing: 1/12 octave
* Frequency Step: 1/48 octave
* Start Frequency: 20.000 Hz
*
* Freq(Hz)	SPL(dB)	Phase(degrees)
20.000000	93.784	164.4609
20.299999	93.758	164.0674
20.600000	93.727	163.6623
20.900000	93.691	163.2380
21.200001	93.652	162.7958
21.400000	93.625	162.4949
21.799999	93.570	161.8843
22.000000	93.544	161.5765
22.400000	93.494	160.9555
22.700001	93.459	160.4830
23.000000	93.426	160.0037
23.299999	93.394	159.5207
23.600000	93.363	159.0391
24.000000	93.324	158.4080
24.299999	93.297	157.9475
24.700001	93.263	157.3505
25.000000	93.239	156.9118
25.400000	93.209	156.3334
25.799999	93.179	155.7616
26.200001	93.149	155.2047
26.500000	93.123	154.8059
26.900000	93.085	154.3093
27.200001	93.053	153.9668
27.600000	93.007	153.5477
28.000000	92.960	153.1617
28.500000	92.901	152.7073
29.000000	92.843	152.2675
29.500000	92.784	151.8324
30.000000	92.723	151.3936
30.400000	92.673	151.0341
30.700001	92.637	150.7575
31.100000	92.588	150.3788
31.500000	92.539	149.9902
32.000000	92.475	149.4955
32.500000	92.407	148.9998
33.000000	92.339	148.5162
33.500000	92.274	148.0571
34.000000	92.216	147.6282
34.500000	92.164	147.2225
35.000000	92.118	146.8271
35.500000	92.076	146.4339
36.000000	92.036	146.0482
36.500000	91.993	145.6826
37.000000	91.946	145.3460
37.500000	91.894	145.0366
38.200001	91.811	144.6343
38.700001	91.745	144.3615
39.500000	91.634	143.9415
40.000000	91.566	143.6819
40.599998	91.490	143.3697
41.200001	91.420	143.0633
41.799999	91.357	142.7647
42.500000	91.292	142.4032
43.099998	91.241	142.0594
43.700001	91.187	141.6979
44.400002	91.114	141.3053
45.000000	91.048	141.0206
45.500000	90.994	140.8100
46.200001	90.922	140.5265
46.799999	90.860	140.2811
47.500000	90.784	139.9943
48.200001	90.704	139.7112
48.700001	90.644	139.5162
49.400002	90.559	139.2646
50.000000	90.490	139.0700
50.799999	90.409	138.8229
51.500000	90.345	138.6081
52.200001	90.281	138.4027
53.000000	90.206	138.1873
53.799999	90.134	137.9819
54.500000	90.072	137.8017
55.200001	90.012	137.6233
56.000000	89.945	137.4323
57.000000	89.861	137.2211
58.000000	89.778	137.0207
59.000000	89.695	136.8086
60.000000	89.609	136.5963
60.799999	89.538	136.4395
61.500000	89.476	136.3118
62.200001	89.418	136.1880
63.000000	89.354	136.0449
64.000000	89.278	135.8594
65.000000	89.204	135.6688
66.000000	89.129	135.4685
67.000000	89.053	135.2674
68.000000	88.976	135.0883
69.000000	88.895	134.9410
70.000000	88.811	134.8456
71.000000	88.728	134.8052
72.000000	88.652	134.7921
73.000000	88.584	134.7864
74.000000	88.522	134.7639
75.000000	88.458	134.7112
76.199997	88.371	134.6228
77.500000	88.274	134.4963
78.800003	88.188	134.3112
80.000000	88.126	134.0948
81.199997	88.088	133.9001
82.500000	88.077	133.7863
83.800003	88.093	133.7261
85.000000	88.105	133.5416
86.199997	88.051	133.1472
87.500000	87.875	132.8411
88.500000	87.697	132.8857
90.000000	87.456	133.1250
91.199997	87.312	133.2673
92.500000	87.217	133.3135
93.800003	87.166	133.2050
95.000000	87.122	133.0369
96.199997	87.064	132.9179
97.500000	86.982	132.9161
98.800003	86.895	133.0594
100.000000	86.827	133.2715
101.500000	86.760	133.5789
103.000000	86.704	133.8959
104.400002	86.640	134.1138
106.000000	86.539	134.2020
107.500000	86.439	134.1250
109.000000	86.368	133.9371
110.599998	86.326	133.7495
112.000000	86.286	133.6930
113.800003	86.155	133.5452
115.000000	85.983	133.0864
117.199997	85.473	131.2169
118.000000	85.248	130.5330
120.599998	84.787	130.8174
122.000000	84.937	131.9846
124.099998	85.411	133.3583
125.000000	85.587	133.9309
126.500000	85.776	134.9922
128.000000	85.831	135.9659
131.500000	85.572	136.3188
132.000000	85.502	136.1879
134.000000	85.195	135.7584
136.000000	84.931	135.7627
138.000000	84.782	136.1285
140.000000	84.753	136.4381
143.000000	84.761	136.4523
145.000000	84.698	136.4615
147.500000	84.560	136.7197
150.000000	84.486	136.9153
152.500000	84.487	136.9866
155.000000	84.447	137.6178
157.500000	84.284	139.3154
160.000000	84.083	141.5562
162.500000	83.958	143.4681
165.000000	83.948	144.9979
167.500000	84.027	146.4604
170.000000	84.163	147.8024
172.500000	84.341	148.6223
175.000000	84.537	148.6653
177.500000	84.704	148.0557
180.000000	84.803	147.1355
182.500000	84.828	146.1586
185.000000	84.787	145.2248
187.500000	84.709	144.4210
190.000000	84.648	143.7899
192.500000	84.628	143.2335
195.000000	84.613	142.7499
197.500000	84.573	142.4995
200.000000	84.507	142.5582
203.000000	84.405	142.8894
206.000000	84.304	143.1702
209.000000	84.229	143.1470
212.000000	84.169	142.9471
214.000000	84.129	142.8713
218.000000	84.058	143.1362
220.000000	84.029	143.5066
224.000000	83.955	144.3565
227.000000	83.875	144.6324
230.000000	83.787	144.5941
233.000000	83.712	144.5215
236.000000	83.652	144.5324
240.000000	83.584	144.6630
243.000000	83.537	144.8351
247.000000	83.469	145.1339
250.000000	83.416	145.4055
254.000000	83.350	145.8402
258.000000	83.296	146.3024
262.000000	83.254	146.6937
265.000000	83.222	146.9296
269.000000	83.181	147.2219
272.000000	83.155	147.4584
276.000000	83.122	147.8392
280.000000	83.085	148.3117
285.000000	83.047	148.9208
290.000000	83.026	149.3864
295.000000	83.002	149.7060
300.000000	82.967	150.0111
304.000000	82.941	150.2995
307.000000	82.923	150.5364
311.000000	82.895	150.8631
315.000000	82.859	151.1888
320.000000	82.807	151.5924
325.000000	82.759	152.0208
330.000000	82.720	152.4847
335.000000	82.688	152.9548
340.000000	82.655	153.4012
345.000000	82.620	153.8160
350.000000	82.587	154.2024
355.000000	82.562	154.5734
360.000000	82.542	154.9550
365.000000	82.520	155.3492
370.000000	82.492	155.7419
375.000000	82.465	156.1395
382.000000	82.436	156.7287
387.000000	82.421	157.1609
395.000000	82.398	157.8400
400.000000	82.383	158.2599
406.000000	82.363	158.7526
412.000000	82.339	159.2340
418.000000	82.314	159.7320
425.000000	82.288	160.3544
431.000000	82.275	160.9029
437.000000	82.269	161.4306
444.000000	82.269	162.0077
450.000000	82.276	162.4624
455.000000	82.283	162.7931
462.000000	82.287	163.1858
468.000000	82.279	163.5188
475.000000	82.262	163.9696
482.000000	82.246	164.4766
487.000000	82.234	164.8478
494.000000	82.216	165.3801
500.000000	82.201	165.8636
508.000000	82.190	166.5201
515.000000	82.184	167.0729
522.000000	82.177	167.6178
530.000000	82.167	168.2610
538.000000	82.161	168.9190
545.000000	82.160	169.4873
552.000000	82.159	170.0464
560.000000	82.158	170.6615
570.000000	82.152	171.3973
580.000000	82.142	172.1483
590.000000	82.129	172.9123
600.000000	82.123	173.6947
608.000000	82.128	174.3427
615.000000	82.137	174.9122
622.000000	82.143	175.4832
630.000000	82.149	176.1543
640.000000	82.161	177.0225
650.000000	82.184	177.8982
660.000000	82.223	178.7595
670.000000	82.278	179.5538
680.000000	82.333	-179.7362
690.000000	82.378	-179.0599
700.000000	82.412	-178.3631
710.000000	82.443	-177.6280
720.000000	82.477	-176.8801
730.000000	82.514	-176.1391
740.000000	82.552	-175.3964
750.000000	82.591	-174.6405
762.000000	82.639	-173.7182
775.000000	82.699	-172.7263
788.000000	82.766	-171.7474
800.000000	82.834	-170.8260
812.000000	82.912	-169.8868
825.000000	83.010	-168.9204
838.000000	83.117	-168.0748
850.000000	83.212	-167.3681
862.000000	83.297	-166.6688
875.000000	83.381	-165.8981
885.000000	83.443	-165.3054
900.000000	83.538	-164.4430
912.000000	83.617	-163.7641
925.000000	83.711	-163.0301
938.000000	83.815	-162.3147
950.000000	83.914	-161.6869
962.000000	84.015	-161.0897
975.000000	84.124	-160.4629
988.000000	84.231	-159.8407
1000.000000	84.329	-159.2630
1015.000000	84.452	-158.5247
1030.000000	84.585	-157.7906
1044.000000	84.723	-157.1734
1060.000000	84.885	-156.6107
1075.000000	85.029	-156.1848
1090.000000	85.162	-155.7930
1106.000000	85.298	-155.3945
1120.000000	85.417	-155.0649
1138.000000	85.568	-154.6590
1150.000000	85.666	-154.3894
1172.000000	85.839	-153.8732
1180.000000	85.902	-153.6790
1206.000000	86.119	-153.1125
1220.000000	86.242	-152.9034
1241.000000	86.419	-152.6997
1250.000000	86.489	-152.6320
1265.000000	86.597	-152.5246
1280.000000	86.696	-152.4121
1315.000000	86.906	-152.0929
1320.000000	86.934	-152.0429
1340.000000	87.047	-151.8327
1360.000000	87.157	-151.5885
1380.000000	87.265	-151.2815
1400.000000	87.379	-150.8872
1430.000000	87.581	-150.2403
1450.000000	87.735	-149.8991
1475.000000	87.939	-149.5767
1500.000000	88.150	-149.2975
1525.000000	88.365	-148.9844
1550.000000	88.584	-148.5826
1575.000000	88.805	-148.1082
1600.000000	89.004	-147.6652
1625.000000	89.139	-147.3285
1650.000000	89.189	-147.0590
1675.000000	89.180	-146.8031
1700.000000	89.166	-146.5533
1725.000000	89.187	-146.3162
1750.000000	89.259	-146.0650
1775.000000	89.383	-145.7525
1800.000000	89.552	-145.3812
1825.000000	89.753	-145.0295
1850.000000	89.969	-144.7422
1875.000000	90.185	-144.4978
1900.000000	90.398	-144.2658
1925.000000	90.610	-144.0276
1950.000000	90.829	-143.7929
1975.000000	91.059	-143.6221
2000.000000	91.294	-143.5844
2030.000000	91.572	-143.7369
2060.000000	91.834	-144.0615
2090.000000	92.078	-144.5068
2120.000000	92.299	-145.0322
2140.000000	92.435	-145.3959
2180.000000	92.687	-146.0684
2200.000000	92.810	-146.3746
2240.000000	93.056	-146.9785
2270.000000	93.236	-147.4321
2300.000000	93.410	-147.8628
2330.000000	93.585	-148.2705
2360.000000	93.767	-148.7072
2400.000000	94.014	-149.4546
2430.000000	94.190	-150.1813
2470.000000	94.391	-151.3761
2500.000000	94.493	-152.3862
2540.000000	94.552	-153.6094
2580.000000	94.580	-154.4969
2620.000000	94.645	-155.2094
2650.000000	94.724	-155.7354
2690.000000	94.856	-156.4804
2720.000000	94.969	-157.0781
2760.000000	95.136	-157.9561
2800.000000	95.306	-159.0082
2850.000000	95.485	-160.6510
2900.000000	95.591	-162.6147
2950.000000	95.615	-164.7363
3000.000000	95.596	-166.8739
3040.000000	95.573	-168.5255
3070.000000	95.552	-169.6765
3110.000000	95.521	-171.0386
3150.000000	95.490	-172.1983
3200.000000	95.455	-173.4201
3250.000000	95.421	-174.4670
3300.000000	95.384	-175.3780
3350.000000	95.344	-176.1269
3400.000000	95.301	-176.7158
3450.000000	95.241	-177.1806
3500.000000	95.160	-177.5209
3550.000000	95.070	-177.7558
3600.000000	94.988	-177.9567
3650.000000	94.919	-178.1861
3700.000000	94.857	-178.4446
3750.000000	94.800	-178.6902
3820.000000	94.732	-178.9929
3870.000000	94.686	-179.1476
3950.000000	94.621	-179.2073
4000.000000	94.591	-179.1875
4060.000000	94.558	-179.1879
4120.000000	94.513	-179.2134
4180.000000	94.450	-179.2449
4250.000000	94.350	-179.2788
4310.000000	94.247	-179.2531
4370.000000	94.145	-179.1833
4440.000000	94.038	-179.1339
4500.000000	93.955	-179.1459
4550.000000	93.890	-179.1813
4620.000000	93.802	-179.2614
4680.000000	93.728	-179.3198
4750.000000	93.652	-179.3339
4820.000000	93.596	-179.3378
4870.000000	93.568	-179.3693
4940.000000	93.539	-179.4564
5000.000000	93.515	-179.5555
5080.000000	93.473	-179.6503
5150.000000	93.426	-179.6266
5220.000000	93.375	-179.5131
5300.000000	93.314	-179.3387
5380.000000	93.242	-179.1652
5450.000000	93.159	-178.9995
5520.000000	93.058	-178.7491
5600.000000	92.932	-178.3103
5700.000000	92.784	-177.5917
5800.000000	92.663	-176.7962
5900.000000	92.568	-175.9574
6000.000000	92.501	-175.0290
6080.000000	92.471	-174.2403
6150.000000	92.464	-173.5523
6220.000000	92.473	-172.8896
6300.000000	92.494	-172.1524
6400.000000	92.537	-171.2090
6500.000000	92.603	-170.2253
6600.000000	92.700	-169.2354
6700.000000	92.831	-168.2592
6800.000000	93.005	-167.2844
6900.000000	93.234	-166.3498
7000.000000	93.527	-165.5742
7100.000000	93.882	-165.0907
7200.000000	94.295	-165.0122
7300.000000	94.768	-165.4869
7400.000000	95.289	-166.7268
7500.000000	95.826	-168.9469
7620.000000	96.426	-173.1228
7750.000000	96.923	-179.6622
7880.000000	97.137	171.8582
8000.000000	96.998	163.0083
8120.000000	96.515	154.2339
8250.000000	95.641	145.9257
8380.000000	94.485	139.6134
8500.000000	93.258	135.7845
8620.000000	91.967	133.7130
8750.000000	90.576	133.0771
8850.000000	89.544	133.5069
9000.000000	88.094	135.3460
9120.000000	87.036	137.6185
9250.000000	85.993	140.7103
9380.000000	85.058	144.3544
9500.000000	84.293	148.0999
9620.000000	83.615	152.1161
9750.000000	82.968	156.7258
9880.000000	82.405	161.5643
10000.000000	81.962	166.1830
10150.000000	81.511	172.1222
10300.000000	81.188	178.1938
10440.000000	81.016	-176.1211
10600.000000	80.972	-169.7260
10750.000000	81.067	-163.9727
10900.000000	81.270	-158.5793
11060.000000	81.593	-153.2742
11200.000000	81.960	-149.0483
11380.000000	82.528	-144.1989
11500.000000	82.961	-141.3298
11720.000000	83.876	-136.9268
11800.000000	84.249	-135.6433
12060.000000	85.612	-133.0263
12200.000000	86.421	-132.9100
12410.000000	87.651	-135.0295
12500.000000	88.148	-136.9395
12650.000000	88.879	-141.5685
12800.000000	89.426	-147.8969
13150.000000	89.701	-166.1795
13200.000000	89.615	-168.7348
13400.000000	88.988	-177.6479
13600.000000	87.993	176.2241
13800.000000	86.778	172.9557
14000.000000	85.509	172.0149
14300.000000	83.843	173.4883
14500.000000	83.023	175.5812
14750.000000	82.346	178.7632
15000.000000	81.986	-177.9002
15250.000000	81.842	-174.8088
15500.000000	81.831	-172.3555
15750.000000	81.929	-171.0462
16000.000000	82.207	-171.6364
16250.000000	82.754	-175.2611
16500.000000	83.456	176.6926
16750.000000	83.946	163.4815
17000.000000	83.818	146.5155
17250.000000	82.859	129.6443
17500.000000	81.106	116.8602
17750.000000	78.754	109.8799
18000.000000	76.034	108.2228
18250.000000	73.160	110.6032
18500.000000	70.302	115.8532
18750.000000	67.574	123.1290
19000.000000	65.038	131.8264
19250.000000	62.720	141.4959
19500.000000	60.622	151.8026
19750.000000	58.730	162.5430
20000.000000	57.015	173.6662
