* Measurement data measured by REW V5.20.13
* Source: EXCL: Mic in at front panel (Pink) (Realtek(R) Audio), MICROPHONE (Master Volume), L, volume: 0.250
* Format: 256k Log Swept Sine, 1 sweep at -12.0 dBFS with no timing reference
* Dated: Nov 17, 2022 7:00:24 PM
* REW Settings:
*  C-weighting compensation: Off
*  Target level: 75.0 dB
* Note: KZ PR1 Pro L
* Measurement: KZ PR1 Pro L
* Smoothing: 1/12 octave
* Frequency Step: 1/48 octave
* Start Frequency: 20.000 Hz
*
* Freq(Hz)	SPL(dB)	Phase(degrees)
20.000000	91.474	-155.5894
20.299999	91.488	-156.2445
20.600000	91.501	-156.8875
20.900000	91.513	-157.5151
21.200001	91.526	-158.1294
21.400000	91.535	-158.5346
21.799999	91.552	-159.3373
22.000000	91.560	-159.7346
22.400000	91.572	-160.5148
22.700001	91.580	-161.0794
23.000000	91.586	-161.6198
23.299999	91.591	-162.1359
23.600000	91.597	-162.6311
24.000000	91.605	-163.2685
24.299999	91.612	-163.7371
24.700001	91.620	-164.3559
25.000000	91.625	-164.8168
25.400000	91.630	-165.4260
25.799999	91.631	-166.0247
26.200001	91.629	-166.6083
26.500000	91.626	-167.0341
26.900000	91.622	-167.5863
27.200001	91.619	-167.9916
27.600000	91.615	-168.5266
28.000000	91.613	-169.0636
28.500000	91.609	-169.7439
29.000000	91.603	-170.4280
29.500000	91.594	-171.1003
30.000000	91.583	-171.7462
30.400000	91.575	-172.2410
30.700001	91.569	-172.6006
31.100000	91.563	-173.0682
31.500000	91.558	-173.5256
32.000000	91.552	-174.0856
32.500000	91.546	-174.6318
33.000000	91.540	-175.1633
33.500000	91.533	-175.6834
34.000000	91.525	-176.1994
34.500000	91.515	-176.7159
35.000000	91.501	-177.2287
35.500000	91.483	-177.7269
36.000000	91.461	-178.2012
36.500000	91.439	-178.6515
37.000000	91.418	-179.0866
37.500000	91.399	-179.5183
38.200001	91.373	179.8677
38.700001	91.354	179.4225
39.500000	91.321	178.7201
40.000000	91.301	178.2962
40.599998	91.278	177.7998
41.200001	91.256	177.3086
41.799999	91.234	176.8257
42.500000	91.206	176.2886
43.099998	91.183	175.8522
43.700001	91.161	175.4250
44.400002	91.134	174.9316
45.000000	91.109	174.5231
45.500000	91.086	174.1995
46.200001	91.053	173.7702
46.799999	91.025	173.4196
47.500000	90.994	173.0251
48.200001	90.966	172.6291
48.700001	90.946	172.3337
49.400002	90.914	171.9060
50.000000	90.883	171.5491
50.799999	90.840	171.1126
51.500000	90.806	170.7487
52.200001	90.775	170.3674
53.000000	90.736	169.9109
53.799999	90.693	169.4766
54.500000	90.656	169.1294
55.200001	90.622	168.7933
56.000000	90.586	168.4108
57.000000	90.544	167.9604
58.000000	90.508	167.5318
59.000000	90.477	167.0783
60.000000	90.440	166.6063
60.799999	90.404	166.2420
61.500000	90.369	165.9422
62.200001	90.332	165.6538
63.000000	90.289	165.3242
64.000000	90.232	164.9001
65.000000	90.170	164.4674
66.000000	90.103	164.0677
67.000000	90.040	163.7477
68.000000	89.994	163.4648
69.000000	89.958	163.1530
70.000000	89.923	162.8274
71.000000	89.888	162.5191
72.000000	89.853	162.2150
73.000000	89.813	161.9053
74.000000	89.767	161.6090
75.000000	89.719	161.3347
76.199997	89.662	161.0135
77.500000	89.602	160.6729
78.800003	89.548	160.3430
80.000000	89.504	160.0182
81.199997	89.461	159.6517
82.500000	89.410	159.2029
83.800003	89.348	158.7198
85.000000	89.277	158.3103
86.199997	89.202	158.0002
87.500000	89.129	157.7543
88.500000	89.079	157.5907
90.000000	89.010	157.3421
91.199997	88.953	157.1331
92.500000	88.884	156.9235
93.800003	88.812	156.7400
95.000000	88.746	156.5778
96.199997	88.681	156.4146
97.500000	88.613	156.2376
98.800003	88.551	156.0573
100.000000	88.498	155.8930
101.500000	88.433	155.7137
103.000000	88.371	155.5757
104.400002	88.315	155.4597
106.000000	88.252	155.2950
107.500000	88.190	155.0977
109.000000	88.125	154.8817
110.599998	88.052	154.6612
112.000000	87.985	154.4918
113.800003	87.893	154.2764
115.000000	87.830	154.0780
117.199997	87.694	153.5606
118.000000	87.635	153.4001
120.599998	87.471	153.4677
122.000000	87.441	153.6862
124.099998	87.425	153.8282
125.000000	87.411	153.8333
126.500000	87.374	153.8123
128.000000	87.324	153.7746
131.500000	87.202	153.6873
132.000000	87.186	153.6766
134.000000	87.120	153.6303
136.000000	87.053	153.5699
138.000000	86.983	153.5028
140.000000	86.912	153.4611
143.000000	86.803	153.4680
145.000000	86.727	153.4583
147.500000	86.634	153.3721
150.000000	86.546	153.2697
152.500000	86.459	153.2917
155.000000	86.376	153.4466
157.500000	86.299	153.5979
160.000000	86.228	153.6762
162.500000	86.159	153.7181
165.000000	86.088	153.7697
167.500000	86.015	153.8464
170.000000	85.941	153.9307
172.500000	85.870	154.0170
175.000000	85.803	154.1086
177.500000	85.740	154.1984
180.000000	85.675	154.2912
182.500000	85.611	154.3874
185.000000	85.552	154.4804
187.500000	85.498	154.5791
190.000000	85.449	154.6929
192.500000	85.394	154.8102
195.000000	85.329	154.9290
197.500000	85.258	155.0609
200.000000	85.191	155.2019
203.000000	85.116	155.3732
206.000000	85.046	155.5466
209.000000	84.980	155.7109
212.000000	84.914	155.8540
214.000000	84.870	155.9470
218.000000	84.780	156.1842
220.000000	84.737	156.3366
224.000000	84.660	156.6597
227.000000	84.608	156.8773
230.000000	84.556	157.0656
233.000000	84.505	157.2388
236.000000	84.455	157.4159
240.000000	84.389	157.6704
243.000000	84.335	157.8718
247.000000	84.258	158.1543
250.000000	84.201	158.3839
254.000000	84.128	158.7307
258.000000	84.067	159.1066
262.000000	84.016	159.4392
265.000000	83.978	159.6491
269.000000	83.923	159.9276
272.000000	83.879	160.1614
276.000000	83.823	160.5020
280.000000	83.772	160.8589
285.000000	83.722	161.2997
290.000000	83.687	161.6718
295.000000	83.651	161.9501
300.000000	83.600	162.2068
304.000000	83.554	162.4381
307.000000	83.519	162.6252
311.000000	83.475	162.8788
315.000000	83.430	163.1284
320.000000	83.374	163.4540
325.000000	83.321	163.8193
330.000000	83.272	164.2062
335.000000	83.228	164.5835
340.000000	83.187	164.9372
345.000000	83.145	165.2758
350.000000	83.102	165.6168
355.000000	83.060	165.9633
360.000000	83.017	166.3119
365.000000	82.976	166.6630
370.000000	82.936	167.0197
375.000000	82.897	167.3824
382.000000	82.845	167.8970
387.000000	82.810	168.2671
395.000000	82.756	168.8624
400.000000	82.725	169.2343
406.000000	82.690	169.6722
412.000000	82.655	170.0997
418.000000	82.620	170.5348
425.000000	82.580	171.0748
431.000000	82.552	171.5561
437.000000	82.530	172.0282
444.000000	82.511	172.5518
450.000000	82.500	172.9617
455.000000	82.490	173.2581
462.000000	82.470	173.6188
468.000000	82.444	173.9331
475.000000	82.409	174.3454
482.000000	82.377	174.7861
487.000000	82.354	175.1039
494.000000	82.320	175.5674
500.000000	82.293	175.9955
508.000000	82.264	176.5778
515.000000	82.243	177.0668
522.000000	82.221	177.5458
530.000000	82.195	178.1116
538.000000	82.173	178.6984
545.000000	82.157	179.2126
552.000000	82.144	179.7233
560.000000	82.132	-179.7081
570.000000	82.118	-179.0276
580.000000	82.103	-178.3497
590.000000	82.088	-177.6548
600.000000	82.075	-176.9360
608.000000	82.068	-176.3562
615.000000	82.063	-175.8556
622.000000	82.058	-175.3511
630.000000	82.054	-174.7495
640.000000	82.056	-173.9668
650.000000	82.068	-173.1811
660.000000	82.092	-172.4217
670.000000	82.123	-171.7464
680.000000	82.152	-171.1586
690.000000	82.171	-170.5975
700.000000	82.185	-170.0179
710.000000	82.199	-169.4119
720.000000	82.215	-168.7977
730.000000	82.233	-168.1843
740.000000	82.251	-167.5672
750.000000	82.269	-166.9414
762.000000	82.293	-166.1757
775.000000	82.322	-165.3288
788.000000	82.355	-164.4646
800.000000	82.390	-163.6364
812.000000	82.436	-162.7794
825.000000	82.502	-161.8813
838.000000	82.575	-161.0830
850.000000	82.639	-160.4122
862.000000	82.698	-159.7507
875.000000	82.761	-159.0151
885.000000	82.813	-158.4360
900.000000	82.895	-157.5699
912.000000	82.967	-156.8828
925.000000	83.050	-156.1498
938.000000	83.140	-155.4481
950.000000	83.226	-154.8399
962.000000	83.312	-154.2633
975.000000	83.406	-153.6599
988.000000	83.501	-153.0706
1000.000000	83.589	-152.5311
1015.000000	83.705	-151.8460
1030.000000	83.833	-151.1695
1044.000000	83.964	-150.6061
1060.000000	84.116	-150.0972
1075.000000	84.253	-149.7200
1090.000000	84.381	-149.3852
1106.000000	84.512	-149.0521
1120.000000	84.623	-148.7754
1138.000000	84.762	-148.4291
1150.000000	84.853	-148.2000
1172.000000	85.020	-147.7747
1180.000000	85.082	-147.6173
1206.000000	85.298	-147.1626
1220.000000	85.417	-147.0074
1241.000000	85.585	-146.8782
1250.000000	85.651	-146.8381
1265.000000	85.757	-146.7701
1280.000000	85.858	-146.6919
1315.000000	86.090	-146.4683
1320.000000	86.123	-146.4365
1340.000000	86.253	-146.3179
1360.000000	86.380	-146.1985
1380.000000	86.504	-146.0484
1400.000000	86.635	-145.8493
1430.000000	86.857	-145.5702
1450.000000	87.014	-145.4985
1475.000000	87.205	-145.5261
1500.000000	87.386	-145.6248
1525.000000	87.560	-145.7489
1550.000000	87.731	-145.8658
1575.000000	87.910	-145.9878
1600.000000	88.099	-146.2078
1625.000000	88.285	-146.5811
1650.000000	88.455	-147.0666
1675.000000	88.611	-147.6163
1700.000000	88.752	-148.2149
1725.000000	88.876	-148.8575
1750.000000	88.977	-149.4995
1775.000000	89.058	-150.0624
1800.000000	89.130	-150.5070
1825.000000	89.199	-150.8606
1850.000000	89.267	-151.1372
1875.000000	89.335	-151.3182
1900.000000	89.409	-151.3883
1925.000000	89.497	-151.3486
1950.000000	89.610	-151.2316
1975.000000	89.754	-151.1196
2000.000000	89.925	-151.1066
2030.000000	90.153	-151.2908
2060.000000	90.392	-151.7205
2090.000000	90.633	-152.4169
2120.000000	90.860	-153.3769
2140.000000	90.998	-154.1318
2180.000000	91.241	-155.8062
2200.000000	91.349	-156.7101
2240.000000	91.533	-158.6529
2270.000000	91.639	-160.1890
2300.000000	91.717	-161.7301
2330.000000	91.774	-163.2320
2360.000000	91.817	-164.7066
2400.000000	91.851	-166.6985
2430.000000	91.851	-168.2108
2470.000000	91.809	-170.1777
2500.000000	91.746	-171.5502
2540.000000	91.627	-173.1266
2580.000000	91.492	-174.3502
2620.000000	91.367	-175.3143
2650.000000	91.280	-175.9424
2690.000000	91.170	-176.6878
2720.000000	91.091	-177.1741
2760.000000	90.993	-177.7477
2800.000000	90.902	-178.2780
2850.000000	90.791	-178.8889
2900.000000	90.677	-179.4106
2950.000000	90.564	-179.7857
3000.000000	90.467	179.9546
3040.000000	90.401	179.7620
3070.000000	90.354	179.6201
3110.000000	90.295	179.4498
3150.000000	90.244	179.2868
3200.000000	90.187	179.0291
3250.000000	90.126	178.6799
3300.000000	90.043	178.2990
3350.000000	89.938	178.0175
3400.000000	89.821	177.9042
3450.000000	89.702	177.9634
3500.000000	89.588	178.2127
3550.000000	89.493	178.6298
3600.000000	89.424	179.1331
3650.000000	89.377	179.6508
3700.000000	89.346	-179.8372
3750.000000	89.330	-179.3237
3820.000000	89.332	-178.6624
3870.000000	89.341	-178.2518
3950.000000	89.358	-177.5927
4000.000000	89.374	-177.1328
4060.000000	89.408	-176.5159
4120.000000	89.468	-175.8292
4180.000000	89.566	-175.1530
4250.000000	89.726	-174.5661
4310.000000	89.882	-174.3055
4370.000000	90.042	-174.2590
4440.000000	90.226	-174.4375
4500.000000	90.375	-174.7390
4550.000000	90.497	-175.0750
4620.000000	90.660	-175.7004
4680.000000	90.784	-176.3668
4750.000000	90.910	-177.2067
4820.000000	91.025	-178.0418
4870.000000	91.109	-178.6325
4940.000000	91.240	-179.5056
5000.000000	91.368	179.6060
5080.000000	91.542	178.0864
5150.000000	91.683	176.3987
5220.000000	91.795	174.3593
5300.000000	91.865	171.6222
5380.000000	91.848	168.5660
5450.000000	91.748	165.7892
5520.000000	91.562	163.1125
5600.000000	91.258	160.3854
5700.000000	90.773	157.6771
5800.000000	90.210	155.8597
5900.000000	89.608	154.9818
6000.000000	89.012	155.0344
6080.000000	88.570	155.6249
6150.000000	88.224	156.4085
6220.000000	87.915	157.3308
6300.000000	87.599	158.4753
6400.000000	87.242	160.0119
6500.000000	86.912	161.7053
6600.000000	86.601	163.6442
6700.000000	86.317	165.9356
6800.000000	86.087	168.6320
6900.000000	85.942	171.6405
7000.000000	85.904	174.7560
7100.000000	85.972	177.7822
7200.000000	86.138	-179.4167
7300.000000	86.394	-176.9742
7400.000000	86.726	-175.0521
7500.000000	87.106	-173.7847
7620.000000	87.582	-173.2122
7750.000000	88.072	-173.8073
7880.000000	88.468	-175.6586
8000.000000	88.685	-178.2370
8120.000000	88.729	178.8195
8250.000000	88.579	175.8062
8380.000000	88.251	173.5496
8500.000000	87.838	172.5267
8620.000000	87.385	172.6513
8750.000000	86.924	173.9974
8850.000000	86.635	175.7673
9000.000000	86.383	179.2451
9120.000000	86.377	-177.7233
9250.000000	86.561	-174.6824
9380.000000	86.904	-172.2558
9500.000000	87.319	-170.7948
9620.000000	87.783	-170.2192
9750.000000	88.295	-170.6626
9880.000000	88.772	-172.2542
10000.000000	89.135	-174.7226
10150.000000	89.424	-178.9025
10300.000000	89.487	176.2557
10440.000000	89.334	171.7615
10600.000000	88.939	167.3547
10750.000000	88.418	164.3273
10900.000000	87.821	162.4292
11060.000000	87.164	161.5043
11200.000000	86.608	161.4304
11380.000000	85.939	162.1130
11500.000000	85.527	162.9930
11720.000000	84.865	165.3879
11800.000000	84.663	166.4782
12060.000000	84.202	170.4978
12200.000000	84.096	172.6769
12410.000000	84.115	175.4566
12500.000000	84.176	176.3412
12650.000000	84.323	177.2778
12800.000000	84.493	177.4617
13150.000000	84.773	174.9497
13200.000000	84.782	174.3065
13400.000000	84.712	171.2761
13600.000000	84.451	167.8878
13800.000000	83.992	164.6295
14000.000000	83.334	162.0236
14300.000000	82.021	160.5857
14500.000000	81.027	161.8068
14750.000000	79.836	165.5682
15000.000000	78.864	170.9452
15250.000000	78.184	177.0233
15500.000000	77.791	-176.8247
15750.000000	77.647	-171.0087
16000.000000	77.711	-165.8414
16250.000000	77.933	-161.5963
16500.000000	78.253	-158.5018
16750.000000	78.600	-156.6605
17000.000000	78.911	-155.9681
17250.000000	79.152	-156.1474
17500.000000	79.328	-156.9450
17750.000000	79.457	-158.3495
18000.000000	79.524	-160.5368
18250.000000	79.478	-163.5506
18500.000000	79.260	-167.0728
18750.000000	78.840	-170.4985
19000.000000	78.231	-173.2256
19250.000000	77.477	-174.9007
19500.000000	76.631	-175.4684
19750.000000	75.728	-175.0356
20000.000000	74.777	-173.6814
