* Measurement data measured by REW V5.20
* Source: Mic in at front panel (Pink) (Realtek(R) Audio), no input selected, L, volume: 0.250
* Format: 256k Log Swept Sine, 1 sweep at -12.0 dBFS with no timing reference
* Dated: Sep 4, 2021 2:50:46 PM
* REW Settings:
*  C-weighting compensation: Off
*  Target level: 75.0 dB
* Note: KZ ZSN Pro X
* Measurement: Sep 4
* Smoothing: 1/12 octave
* Frequency Step: 1/48 octave
* Start Frequency: 20.000 Hz
*
* Freq(Hz)	SPL(dB)	Phase(degrees)
20.000000	101.5	37.8008
20.299999	101.5	37.1001
20.600000	101.5	36.4124
20.900000	101.5	35.7379
21.200001	101.6	35.0777
21.400000	101.6	34.6460
21.799999	101.6	33.8028
22.000000	101.6	33.3902
22.400000	101.6	32.5792
22.700001	101.7	31.9798
23.000000	101.7	31.3858
23.299999	101.7	30.7985
23.600000	101.7	30.2206
24.000000	101.7	29.4700
24.299999	101.7	28.9246
24.700001	101.8	28.2203
25.000000	101.8	27.7061
25.400000	101.8	27.0339
25.799999	101.8	26.3746
26.200001	101.8	25.7297
26.500000	101.8	25.2577
26.900000	101.8	24.6441
27.200001	101.8	24.1932
27.600000	101.8	23.5986
28.000000	101.8	23.0048
28.500000	101.8	22.2621
29.000000	101.9	21.5299
29.500000	101.9	20.8248
30.000000	101.9	20.1549
30.400000	101.9	19.6411
30.700001	101.9	19.2646
31.100000	101.9	18.7694
31.500000	101.9	18.2794
32.000000	101.9	17.6740
32.500000	101.9	17.0779
33.000000	101.9	16.4916
33.500000	101.9	15.9119
34.000000	101.9	15.3367
34.500000	101.9	14.7672
35.000000	101.9	14.2079
35.500000	101.9	13.6624
36.000000	101.9	13.1310
36.500000	101.9	12.6112
37.000000	101.9	12.1008
37.500000	101.9	11.5995
38.200001	101.9	10.9136
38.700001	101.9	10.4348
39.500000	101.9	9.6862
40.000000	101.8	9.2303
40.599998	101.8	8.6968
41.200001	101.8	8.1768
41.799999	101.8	7.6671
42.500000	101.8	7.0822
43.099998	101.8	6.5900
43.700001	101.8	6.1088
44.400002	101.8	5.5629
45.000000	101.8	5.1061
45.500000	101.7	4.7305
46.200001	101.7	4.2105
46.799999	101.7	3.7709
47.500000	101.7	3.2681
48.200001	101.7	2.7773
48.700001	101.7	2.4335
49.400002	101.7	1.9611
50.000000	101.6	1.5656
50.799999	101.6	1.0533
51.500000	101.6	0.6185
52.200001	101.6	0.1965
53.000000	101.6	-0.2658
53.799999	101.5	-0.7061
54.500000	101.5	-1.0796
55.200001	101.5	-1.4518
56.000000	101.5	-1.8862
57.000000	101.5	-2.4491
58.000000	101.4	-3.0205
59.000000	101.4	-3.5825
60.000000	101.4	-4.1250
60.799999	101.4	-4.5443
61.500000	101.3	-4.9022
62.200001	101.3	-5.2482
63.000000	101.3	-5.6205
64.000000	101.2	-6.0424
65.000000	101.2	-6.4155
66.000000	101.2	-6.7456
67.000000	101.1	-7.0415
68.000000	101.1	-7.3112
69.000000	101.1	-7.5660
70.000000	101.1	-7.8254
71.000000	101.1	-8.1090
72.000000	101.1	-8.4376
73.000000	101.1	-8.8230
74.000000	101.1	-9.2437
75.000000	101.0	-9.6655
76.199997	101.0	-10.1636
77.500000	101.0	-10.7085
78.800003	101.0	-11.2651
80.000000	100.9	-11.7892
81.199997	100.9	-12.3236
82.500000	100.9	-12.9101
83.800003	100.8	-13.4884
85.000000	100.8	-13.9958
86.199997	100.7	-14.4653
87.500000	100.7	-14.9277
88.500000	100.6	-15.2550
90.000000	100.6	-15.7138
91.199997	100.5	-16.0624
92.500000	100.5	-16.4269
93.800003	100.5	-16.7822
95.000000	100.4	-17.1044
96.199997	100.4	-17.4219
97.500000	100.3	-17.7597
98.800003	100.3	-18.0874
100.000000	100.2	-18.3766
101.500000	100.2	-18.7168
103.000000	100.1	-19.0377
104.400002	100.1	-19.3304
106.000000	100.0	-19.6701
107.500000	100.0	-19.9998
109.000000	99.9	-20.3394
110.599998	99.9	-20.7083
112.000000	99.9	-21.0345
113.800003	99.8	-21.4524
115.000000	99.7	-21.7212
117.199997	99.6	-22.1594
118.000000	99.6	-22.2916
120.599998	99.5	-22.6101
122.000000	99.5	-22.7465
124.099998	99.4	-22.9670
125.000000	99.4	-23.0704
126.500000	99.3	-23.2543
128.000000	99.3	-23.4532
131.500000	99.2	-23.9666
132.000000	99.2	-24.0424
134.000000	99.1	-24.3394
136.000000	99.1	-24.6186
138.000000	99.0	-24.8827
140.000000	98.9	-25.1375
143.000000	98.8	-25.5011
145.000000	98.8	-25.7281
147.500000	98.7	-25.9950
150.000000	98.6	-26.2437
152.500000	98.5	-26.4589
155.000000	98.4	-26.6314
157.500000	98.4	-26.7770
160.000000	98.3	-26.9351
162.500000	98.2	-27.1242
165.000000	98.1	-27.3239
167.500000	98.1	-27.4985
170.000000	98.0	-27.6285
172.500000	97.9	-27.7177
175.000000	97.8	-27.7850
177.500000	97.8	-27.8572
180.000000	97.7	-27.9446
182.500000	97.7	-28.0439
185.000000	97.6	-28.1606
187.500000	97.5	-28.3014
190.000000	97.5	-28.4563
192.500000	97.4	-28.6092
195.000000	97.3	-28.7481
197.500000	97.3	-28.8563
200.000000	97.2	-28.9227
203.000000	97.1	-28.9581
206.000000	97.0	-28.9844
209.000000	97.0	-29.0378
212.000000	96.9	-29.1189
214.000000	96.9	-29.1732
218.000000	96.8	-29.2281
220.000000	96.7	-29.2176
224.000000	96.6	-29.1580
227.000000	96.5	-29.1223
230.000000	96.5	-29.1057
233.000000	96.4	-29.0993
236.000000	96.3	-29.0967
240.000000	96.2	-29.0970
243.000000	96.2	-29.0945
247.000000	96.1	-29.0634
250.000000	96.0	-29.0011
254.000000	95.9	-28.8582
258.000000	95.8	-28.6877
262.000000	95.8	-28.5593
265.000000	95.7	-28.4954
269.000000	95.6	-28.4096
272.000000	95.6	-28.3210
276.000000	95.5	-28.1678
280.000000	95.4	-27.9922
285.000000	95.4	-27.7804
290.000000	95.3	-27.6414
295.000000	95.2	-27.5849
300.000000	95.1	-27.5247
304.000000	95.1	-27.4366
307.000000	95.0	-27.3513
311.000000	94.9	-27.2261
315.000000	94.9	-27.0944
320.000000	94.8	-26.9056
325.000000	94.7	-26.6727
330.000000	94.6	-26.4113
335.000000	94.5	-26.1491
340.000000	94.5	-25.9004
345.000000	94.4	-25.6573
350.000000	94.3	-25.4042
355.000000	94.2	-25.1373
360.000000	94.2	-24.8604
365.000000	94.1	-24.5756
370.000000	94.0	-24.2830
375.000000	93.9	-23.9821
382.000000	93.9	-23.5486
387.000000	93.8	-23.2323
395.000000	93.7	-22.7164
400.000000	93.6	-22.3895
406.000000	93.6	-22.0001
412.000000	93.5	-21.6147
418.000000	93.4	-21.2164
425.000000	93.3	-20.7134
431.000000	93.3	-20.2585
437.000000	93.2	-19.8079
444.000000	93.2	-19.3040
450.000000	93.1	-18.9061
455.000000	93.1	-18.6154
462.000000	93.0	-18.2568
468.000000	93.0	-17.9407
475.000000	92.9	-17.5217
482.000000	92.9	-17.0687
487.000000	92.8	-16.7391
494.000000	92.7	-16.2551
500.000000	92.7	-15.8067
508.000000	92.6	-15.1935
515.000000	92.6	-14.6725
522.000000	92.5	-14.1558
530.000000	92.5	-13.5405
538.000000	92.4	-12.8986
545.000000	92.4	-12.3322
552.000000	92.3	-11.7651
560.000000	92.3	-11.1263
570.000000	92.2	-10.3500
580.000000	92.2	-9.5705
590.000000	92.1	-8.7683
600.000000	92.1	-7.9343
608.000000	92.0	-7.2578
615.000000	92.0	-6.6693
622.000000	92.0	-6.0734
630.000000	91.9	-5.3636
640.000000	91.9	-4.4407
650.000000	91.9	-3.5074
660.000000	91.9	-2.5922
670.000000	91.9	-1.7534
680.000000	91.9	-0.9948
690.000000	91.9	-0.2555
700.000000	91.9	0.5123
710.000000	91.9	1.3196
720.000000	91.9	2.1487
730.000000	91.9	2.9889
740.000000	91.9	3.8358
750.000000	91.9	4.6782
762.000000	91.9	5.6721
775.000000	91.9	6.7325
788.000000	91.9	7.7849
800.000000	92.0	8.7619
812.000000	92.0	9.7412
825.000000	92.1	10.7512
838.000000	92.1	11.6639
850.000000	92.2	12.4623
862.000000	92.2	13.2799
875.000000	92.2	14.2106
885.000000	92.3	14.9490
900.000000	92.3	16.0576
912.000000	92.4	16.9376
925.000000	92.4	17.8781
938.000000	92.5	18.7860
950.000000	92.6	19.5841
962.000000	92.7	20.3503
975.000000	92.7	21.1592
988.000000	92.8	21.9549
1000.000000	92.9	22.6873
1015.000000	93.0	23.6193
1030.000000	93.1	24.5552
1044.000000	93.2	25.3761
1060.000000	93.4	26.2028
1075.000000	93.5	26.9100
1090.000000	93.6	27.6199
1106.000000	93.7	28.4196
1120.000000	93.8	29.1681
1138.000000	94.0	30.1869
1150.000000	94.1	30.8690
1172.000000	94.4	31.9976
1180.000000	94.5	32.3391
1206.000000	94.8	33.0993
1220.000000	95.0	33.2840
1241.000000	95.2	33.3939
1250.000000	95.3	33.4250
1265.000000	95.4	33.4944
1280.000000	95.6	33.6010
1315.000000	95.8	33.9963
1320.000000	95.9	34.0621
1340.000000	96.0	34.3276
1360.000000	96.2	34.5942
1380.000000	96.4	34.8781
1400.000000	96.6	35.1988
1430.000000	96.9	35.6654
1450.000000	97.1	35.8831
1475.000000	97.3	36.0701
1500.000000	97.6	36.2194
1525.000000	97.8	36.3698
1550.000000	98.0	36.5463
1575.000000	98.2	36.7321
1600.000000	98.4	36.8330
1625.000000	98.6	36.7962
1650.000000	98.7	36.6703
1675.000000	98.9	36.5147
1700.000000	99.1	36.3557
1725.000000	99.3	36.1993
1750.000000	99.5	36.0685
1775.000000	99.6	35.9825
1800.000000	99.8	35.8839
1825.000000	100.1	35.6367
1850.000000	100.3	35.1535
1875.000000	100.5	34.4454
1900.000000	100.7	33.5774
1925.000000	101.0	32.6226
1950.000000	101.2	31.6186
1975.000000	101.4	30.5389
2000.000000	101.6	29.3398
2030.000000	101.8	27.7559
2060.000000	101.9	26.1034
2090.000000	102.0	24.4966
2120.000000	102.1	23.0554
2140.000000	102.1	22.2527
2180.000000	102.2	21.1149
2200.000000	102.3	20.7235
2240.000000	102.4	19.9586
2270.000000	102.6	19.1283
2300.000000	102.8	17.9344
2330.000000	102.9	16.3991
2360.000000	103.1	14.6213
2400.000000	103.1	12.0882
2430.000000	103.1	10.2397
2470.000000	103.1	8.0189
2500.000000	103.0	6.5629
2540.000000	102.9	4.8701
2580.000000	102.8	3.3853
2620.000000	102.7	2.0128
2650.000000	102.6	1.0586
2690.000000	102.4	-0.0330
2720.000000	102.3	-0.6743
2760.000000	102.1	-1.3298
2800.000000	101.9	-1.8567
2850.000000	101.8	-2.4124
2900.000000	101.6	-2.8235
2950.000000	101.4	-2.9877
3000.000000	101.2	-2.9022
3040.000000	101.0	-2.7172
3070.000000	100.9	-2.5167
3110.000000	100.8	-2.1495
3150.000000	100.7	-1.6768
3200.000000	100.6	-0.9969
3250.000000	100.5	-0.2671
3300.000000	100.4	0.5191
3350.000000	100.3	1.4175
3400.000000	100.2	2.4368
3450.000000	100.2	3.5580
3500.000000	100.1	4.7996
3550.000000	100.1	6.1459
3600.000000	100.2	7.5237
3650.000000	100.2	8.8758
3700.000000	100.3	10.2094
3750.000000	100.4	11.5674
3820.000000	100.6	13.4996
3870.000000	100.8	14.8721
3950.000000	101.1	17.0039
4000.000000	101.3	18.1995
4060.000000	101.7	19.3752
4120.000000	102.1	20.2283
4180.000000	102.4	20.7514
4250.000000	102.9	20.9219
4310.000000	103.4	20.6993
4370.000000	103.8	20.0950
4440.000000	104.3	18.7665
4500.000000	104.7	17.0193
4550.000000	105.0	15.1525
4620.000000	105.3	12.0184
4680.000000	105.6	9.0199
4750.000000	105.7	5.3721
4820.000000	105.8	1.6461
4870.000000	105.8	-1.0692
4940.000000	105.7	-4.9376
5000.000000	105.6	-8.2643
5080.000000	105.3	-12.5020
5150.000000	104.9	-15.7335
5220.000000	104.4	-18.2632
5300.000000	103.8	-20.0829
5380.000000	103.1	-20.7121
5450.000000	102.6	-20.4595
5520.000000	102.1	-19.8167
5600.000000	101.6	-18.9658
5700.000000	101.1	-17.6186
5800.000000	100.5	-15.6594
5900.000000	100.0	-13.0905
6000.000000	99.6	-9.9971
6080.000000	99.3	-7.2351
6150.000000	99.1	-4.6804
6220.000000	99.0	-2.0470
6300.000000	98.8	1.0352
6400.000000	98.8	4.9963
6500.000000	98.8	9.0452
6600.000000	98.9	13.1016
6700.000000	99.1	17.1014
6800.000000	99.4	21.0276
6900.000000	99.9	24.8336
7000.000000	100.4	28.4068
7100.000000	101.0	31.6110
7200.000000	101.8	34.3048
7300.000000	102.8	36.2688
7400.000000	103.9	37.1459
7500.000000	105.0	36.4753
7620.000000	106.4	32.9427
7750.000000	107.6	25.0762
7880.000000	108.3	13.3364
8000.000000	108.4	1.0094
8120.000000	107.9	-10.0929
8250.000000	106.8	-18.6742
8380.000000	105.5	-23.2281
8500.000000	104.2	-24.4396
8620.000000	103.1	-23.6061
8750.000000	102.0	-21.2249
8850.000000	101.4	-18.7260
9000.000000	100.7	-14.3353
9120.000000	100.4	-10.5760
9250.000000	100.3	-6.5098
9380.000000	100.4	-2.6486
9500.000000	100.7	0.5065
9620.000000	101.2	2.9907
9750.000000	102.0	4.5317
9880.000000	102.9	4.2888
10000.000000	103.8	1.8332
10150.000000	104.8	-4.9998
10300.000000	105.3	-15.9752
10440.000000	105.3	-28.4476
10600.000000	104.5	-42.0588
10750.000000	103.2	-51.5240
10900.000000	101.5	-56.9304
11060.000000	99.5	-58.8293
11200.000000	97.7	-58.1391
11380.000000	95.6	-55.1616
11500.000000	94.3	-52.2659
11720.000000	92.2	-45.5094
11800.000000	91.4	-42.6166
12060.000000	89.3	-31.6426
12200.000000	88.3	-24.7927
12410.000000	87.1	-13.3789
12500.000000	86.6	-8.1238
12650.000000	86.0	0.9851
12800.000000	85.7	10.3255
13150.000000	85.8	31.6114
13200.000000	85.9	34.4833
13400.000000	86.7	45.3209
13600.000000	87.8	54.8798
13800.000000	89.4	62.7048
14000.000000	91.2	68.0083
14300.000000	93.9	68.4286
14500.000000	95.4	61.8360
14750.000000	96.3	46.6582
15000.000000	96.0	29.9918
15250.000000	94.7	18.7974
15500.000000	93.0	14.4457
15750.000000	91.7	13.8053
16000.000000	91.2	12.0999
16250.000000	91.2	4.9656
16500.000000	91.0	-8.4753
16750.000000	89.8	-23.5206
17000.000000	87.7	-33.5353
17250.000000	84.8	-35.6976
17500.000000	81.4	-31.2176
17750.000000	77.9	-22.6707
18000.000000	74.6	-12.2138
18250.000000	71.6	-0.6918
18500.000000	68.8	11.9087
18750.000000	66.4	25.6703
19000.000000	64.2	40.4895
19250.000000	62.3	55.8977
19500.000000	60.8	70.6817
19750.000000	59.7	82.7190
