* Measurement data measured by REW V5.20.13
* Source: EXCL: Mic in at front panel (Pink) (Realtek(R) Audio), MICROPHONE (Master Volume), L, volume: 0.250
* Format: 256k Log Swept Sine, 1 sweep at -12.0 dBFS with no timing reference
* Dated: Nov 8, 2022 12:14:17 PM
* REW Settings:
*  C-weighting compensation: Off
*  Target level: 75.0 dB
* Note: Moondrop Aria R
* Measurement: Moondrop Aria R
* Smoothing: 1/12 octave
* Frequency Step: 1/48 octave
* Start Frequency: 20.000 Hz
*
* Freq(Hz)	SPL(dB)	Phase(degrees)
20.000000	96.753	29.8445
20.299999	96.769	29.1422
20.600000	96.781	28.4428
20.900000	96.789	27.7598
21.200001	96.798	27.0900
21.400000	96.805	26.6420
21.799999	96.820	25.7288
22.000000	96.828	25.2606
22.400000	96.841	24.3083
22.700001	96.847	23.5972
23.000000	96.853	22.9051
23.299999	96.858	22.2373
23.600000	96.866	21.5906
24.000000	96.881	20.7495
24.299999	96.894	20.1262
24.700001	96.912	19.3038
25.000000	96.924	18.7003
25.400000	96.939	17.9253
25.799999	96.953	17.1901
26.200001	96.968	16.4886
26.500000	96.978	15.9775
26.900000	96.990	15.3096
27.200001	96.996	14.8198
27.600000	97.001	14.1871
28.000000	97.002	13.5835
28.500000	97.000	12.8652
29.000000	96.998	12.1626
29.500000	96.993	11.4544
30.000000	96.985	10.7422
30.400000	96.975	10.1808
30.700001	96.968	9.7675
31.100000	96.960	9.2209
31.500000	96.954	8.6680
32.000000	96.947	7.9547
32.500000	96.938	7.2264
33.000000	96.925	6.5162
33.500000	96.911	5.8473
34.000000	96.900	5.2135
34.500000	96.892	4.5902
35.000000	96.884	3.9655
35.500000	96.872	3.3517
36.000000	96.855	2.7703
36.500000	96.837	2.2278
37.000000	96.819	1.7104
37.500000	96.803	1.1964
38.200001	96.776	0.4594
38.700001	96.752	-0.0717
39.500000	96.705	-0.8746
40.000000	96.676	-1.3324
40.599998	96.651	-1.8715
41.200001	96.632	-2.4653
41.799999	96.607	-3.1224
42.500000	96.561	-3.8563
43.099998	96.518	-4.3583
43.700001	96.489	-4.7856
44.400002	96.473	-5.3516
45.000000	96.454	-5.9479
45.500000	96.422	-6.4502
46.200001	96.359	-7.0184
46.799999	96.310	-7.3508
47.500000	96.276	-7.6927
48.200001	96.257	-8.1365
48.700001	96.239	-8.5239
49.400002	96.201	-9.0794
50.000000	96.161	-9.5009
50.799999	96.113	-9.9895
51.500000	96.077	-10.4095
52.200001	96.043	-10.8459
53.000000	96.002	-11.3406
53.799999	95.959	-11.8119
54.500000	95.921	-12.2109
55.200001	95.883	-12.6049
56.000000	95.837	-13.0493
57.000000	95.779	-13.5911
58.000000	95.720	-14.1221
59.000000	95.662	-14.6481
60.000000	95.604	-15.1724
60.799999	95.558	-15.5948
61.500000	95.516	-15.9625
62.200001	95.473	-16.3184
63.000000	95.420	-16.7001
64.000000	95.354	-17.1375
65.000000	95.286	-17.5416
66.000000	95.219	-17.9279
67.000000	95.153	-18.3145
68.000000	95.086	-18.7220
69.000000	95.015	-19.1466
70.000000	94.937	-19.5259
71.000000	94.864	-19.8076
72.000000	94.806	-20.0383
73.000000	94.762	-20.2985
74.000000	94.718	-20.6074
75.000000	94.666	-20.9206
76.199997	94.595	-21.2363
77.500000	94.516	-21.5039
78.800003	94.438	-21.7316
80.000000	94.370	-21.9476
81.199997	94.302	-22.2236
82.500000	94.216	-22.5710
83.800003	94.119	-22.8861
85.000000	94.032	-23.1074
86.199997	93.958	-23.2632
87.500000	93.894	-23.3702
88.500000	93.854	-23.4009
90.000000	93.807	-23.3413
91.199997	93.782	-23.2541
92.500000	93.762	-23.2222
93.800003	93.744	-23.3436
95.000000	93.721	-23.6121
96.199997	93.690	-23.9875
97.500000	93.648	-24.4348
98.800003	93.602	-24.8454
100.000000	93.558	-25.1648
101.500000	93.501	-25.4878
103.000000	93.445	-25.7448
104.400002	93.398	-25.9569
106.000000	93.344	-26.1922
107.500000	93.285	-26.4099
109.000000	93.213	-26.6450
110.599998	93.124	-26.9671
112.000000	93.048	-27.2632
113.800003	92.996	-27.4948
115.000000	93.007	-27.4666
117.199997	93.116	-26.9705
118.000000	93.170	-26.7589
120.599998	93.203	-26.8151
122.000000	93.051	-27.1317
124.099998	92.724	-27.4215
125.000000	92.599	-27.5183
126.500000	92.437	-27.7111
128.000000	92.326	-27.9077
131.500000	92.164	-28.1637
132.000000	92.146	-28.1968
134.000000	92.070	-28.3631
136.000000	91.994	-28.5197
138.000000	91.918	-28.5918
140.000000	91.841	-28.5795
143.000000	91.740	-28.5421
145.000000	91.678	-28.5898
147.500000	91.585	-28.6831
150.000000	91.476	-28.7428
152.500000	91.370	-28.7624
155.000000	91.271	-28.7203
157.500000	91.183	-28.6172
160.000000	91.120	-28.5257
162.500000	91.077	-28.4997
165.000000	91.026	-28.5231
167.500000	90.958	-28.5911
170.000000	90.881	-28.6356
172.500000	90.776	-28.5660
175.000000	90.592	-28.4044
177.500000	90.353	-28.0982
180.000000	90.213	-27.7519
182.500000	90.233	-27.6805
185.000000	90.300	-27.7261
187.500000	90.324	-27.6865
190.000000	90.299	-27.6251
192.500000	90.250	-27.5740
195.000000	90.193	-27.4742
197.500000	90.133	-27.3127
200.000000	90.075	-27.1500
203.000000	90.009	-27.0227
206.000000	89.944	-26.9598
209.000000	89.878	-26.9211
212.000000	89.813	-26.8745
214.000000	89.767	-26.8283
218.000000	89.671	-26.6809
220.000000	89.625	-26.5761
224.000000	89.540	-26.3256
227.000000	89.481	-26.1304
230.000000	89.424	-25.9463
233.000000	89.365	-25.7758
236.000000	89.307	-25.6168
240.000000	89.229	-25.4202
243.000000	89.169	-25.2734
247.000000	89.089	-25.0480
250.000000	89.028	-24.8402
254.000000	88.951	-24.5085
258.000000	88.887	-24.1548
262.000000	88.831	-23.8461
265.000000	88.788	-23.6509
269.000000	88.727	-23.4023
272.000000	88.681	-23.2016
276.000000	88.623	-22.9055
280.000000	88.570	-22.5877
285.000000	88.516	-22.1967
290.000000	88.471	-21.8821
295.000000	88.420	-21.6634
300.000000	88.357	-21.4523
304.000000	88.303	-21.2487
307.000000	88.262	-21.0797
311.000000	88.210	-20.8467
315.000000	88.158	-20.6112
320.000000	88.093	-20.2982
325.000000	88.029	-19.9474
330.000000	87.972	-19.5759
335.000000	87.920	-19.2130
340.000000	87.871	-18.8723
345.000000	87.821	-18.5452
350.000000	87.771	-18.2137
355.000000	87.723	-17.8705
360.000000	87.676	-17.5203
365.000000	87.631	-17.1702
370.000000	87.587	-16.8207
375.000000	87.544	-16.4690
382.000000	87.487	-15.9734
387.000000	87.448	-15.6185
395.000000	87.389	-15.0492
400.000000	87.355	-14.6952
406.000000	87.316	-14.2793
412.000000	87.277	-13.8743
418.000000	87.237	-13.4637
425.000000	87.192	-12.9545
431.000000	87.160	-12.5002
437.000000	87.134	-12.0551
444.000000	87.110	-11.5641
450.000000	87.093	-11.1818
455.000000	87.080	-10.9066
462.000000	87.054	-10.5748
468.000000	87.023	-10.2870
475.000000	86.983	-9.9067
482.000000	86.945	-9.4978
487.000000	86.918	-9.2030
494.000000	86.879	-8.7727
500.000000	86.847	-8.3750
508.000000	86.812	-7.8350
515.000000	86.784	-7.3819
522.000000	86.756	-6.9368
530.000000	86.723	-6.4085
538.000000	86.693	-5.8590
545.000000	86.671	-5.3774
552.000000	86.651	-4.8993
560.000000	86.632	-4.3655
570.000000	86.608	-3.7245
580.000000	86.583	-3.0868
590.000000	86.558	-2.4346
600.000000	86.535	-1.7570
608.000000	86.520	-1.2079
615.000000	86.508	-0.7319
622.000000	86.496	-0.2500
630.000000	86.483	0.3269
640.000000	86.474	1.0792
650.000000	86.474	1.8376
660.000000	86.487	2.5758
670.000000	86.509	3.2354
680.000000	86.527	3.8115
690.000000	86.536	4.3643
700.000000	86.540	4.9414
710.000000	86.545	5.5527
720.000000	86.553	6.1768
730.000000	86.564	6.8013
740.000000	86.576	7.4299
750.000000	86.590	8.0668
762.000000	86.611	8.8438
775.000000	86.640	9.6960
788.000000	86.674	10.5527
800.000000	86.711	11.3571
812.000000	86.760	12.1705
825.000000	86.827	13.0012
838.000000	86.901	13.7190
850.000000	86.963	14.3083
862.000000	87.020	14.8841
875.000000	87.079	15.5237
885.000000	87.125	16.0284
900.000000	87.199	16.7872
912.000000	87.262	17.3963
925.000000	87.335	18.0547
938.000000	87.416	18.6931
950.000000	87.495	19.2518
962.000000	87.576	19.7815
975.000000	87.668	20.3251
988.000000	87.763	20.8317
1000.000000	87.851	21.2697
1015.000000	87.962	21.8016
1030.000000	88.082	22.3103
1044.000000	88.203	22.7098
1060.000000	88.342	23.0198
1075.000000	88.461	23.1957
1090.000000	88.567	23.3188
1106.000000	88.667	23.4304
1120.000000	88.744	23.5369
1138.000000	88.833	23.7241
1150.000000	88.890	23.8923
1172.000000	88.999	24.2869
1180.000000	89.043	24.4502
1206.000000	89.210	24.9424
1220.000000	89.307	25.1129
1241.000000	89.446	25.2450
1250.000000	89.501	25.2780
1265.000000	89.588	25.3237
1280.000000	89.670	25.3672
1315.000000	89.852	25.4734
1320.000000	89.878	25.4856
1340.000000	89.977	25.5209
1360.000000	90.069	25.5524
1380.000000	90.155	25.6151
1400.000000	90.243	25.7333
1430.000000	90.394	25.9181
1450.000000	90.500	25.9544
1475.000000	90.624	25.9205
1500.000000	90.737	25.8613
1525.000000	90.840	25.8224
1550.000000	90.942	25.8353
1575.000000	91.051	25.8873
1600.000000	91.173	25.8870
1625.000000	91.292	25.7825
1650.000000	91.401	25.6205
1675.000000	91.500	25.4525
1700.000000	91.593	25.2928
1725.000000	91.681	25.1359
1750.000000	91.761	25.0024
1775.000000	91.839	24.9329
1800.000000	91.924	24.9213
1825.000000	92.019	24.8973
1850.000000	92.117	24.8206
1875.000000	92.211	24.7067
1900.000000	92.300	24.5925
1925.000000	92.387	24.5137
1950.000000	92.481	24.4796
1975.000000	92.586	24.4453
2000.000000	92.702	24.3488
2030.000000	92.843	24.1217
2060.000000	92.981	23.7881
2090.000000	93.110	23.3640
2120.000000	93.226	22.8740
2140.000000	93.295	22.5405
2180.000000	93.421	21.9290
2200.000000	93.484	21.6399
2240.000000	93.609	21.0289
2270.000000	93.696	20.5428
2300.000000	93.775	20.0719
2330.000000	93.852	19.6452
2360.000000	93.937	19.2371
2400.000000	94.058	18.6216
2430.000000	94.147	18.0751
2470.000000	94.253	17.2490
2500.000000	94.319	16.5822
2540.000000	94.386	15.7048
2580.000000	94.440	14.9016
2620.000000	94.488	14.1383
2650.000000	94.519	13.5747
2690.000000	94.548	12.8697
2720.000000	94.565	12.4065
2760.000000	94.591	11.8618
2800.000000	94.621	11.3469
2850.000000	94.656	10.7193
2900.000000	94.684	10.1558
2950.000000	94.712	9.7562
3000.000000	94.766	9.5056
3040.000000	94.835	9.3073
3070.000000	94.900	9.1157
3110.000000	95.000	8.7724
3150.000000	95.110	8.2858
3200.000000	95.248	7.4241
3250.000000	95.363	6.3124
3300.000000	95.441	5.0709
3350.000000	95.484	3.8486
3400.000000	95.507	2.7064
3450.000000	95.516	1.6461
3500.000000	95.516	0.6973
3550.000000	95.520	-0.1446
3600.000000	95.535	-0.9530
3650.000000	95.559	-1.8054
3700.000000	95.581	-2.7263
3750.000000	95.598	-3.6924
3820.000000	95.610	-5.1072
3870.000000	95.605	-6.1343
3950.000000	95.585	-7.7098
4000.000000	95.574	-8.6825
4060.000000	95.560	-9.9116
4120.000000	95.538	-11.2189
4180.000000	95.501	-12.5834
4250.000000	95.436	-14.2223
4310.000000	95.359	-15.6055
4370.000000	95.271	-16.9486
4440.000000	95.158	-18.5244
4500.000000	95.045	-19.9105
4550.000000	94.936	-21.0736
4620.000000	94.754	-22.6752
4680.000000	94.569	-23.9565
4750.000000	94.329	-25.2665
4820.000000	94.076	-26.3875
4870.000000	93.891	-27.1017
4940.000000	93.623	-27.9974
5000.000000	93.384	-28.6697
5080.000000	93.048	-29.3830
5150.000000	92.743	-29.7740
5220.000000	92.438	-29.9509
5300.000000	92.099	-29.9484
5380.000000	91.770	-29.7770
5450.000000	91.486	-29.4972
5520.000000	91.204	-29.0602
5600.000000	90.893	-28.3461
5700.000000	90.535	-27.1953
5800.000000	90.215	-25.8666
5900.000000	89.922	-24.3976
6000.000000	89.657	-22.7310
6080.000000	89.473	-21.2591
6150.000000	89.336	-19.9033
6220.000000	89.222	-18.5150
6300.000000	89.117	-16.8990
6400.000000	89.024	-14.8228
6500.000000	88.981	-12.7024
6600.000000	88.993	-10.6063
6700.000000	89.058	-8.5924
6800.000000	89.175	-6.6755
6900.000000	89.354	-4.8932
7000.000000	89.597	-3.3383
7100.000000	89.902	-2.1104
7200.000000	90.268	-1.2875
7300.000000	90.693	-0.9805
7400.000000	91.169	-1.3700
7500.000000	91.670	-2.6578
7620.000000	92.254	-5.6218
7750.000000	92.777	-10.8005
7880.000000	93.064	-17.9938
8000.000000	93.014	-25.8300
8120.000000	92.618	-33.7832
8250.000000	91.815	-41.3354
8380.000000	90.695	-46.8826
8500.000000	89.466	-49.8718
8620.000000	88.143	-50.8875
8750.000000	86.688	-50.0653
8850.000000	85.590	-48.2498
9000.000000	84.020	-43.8101
9120.000000	82.862	-38.9114
9250.000000	81.735	-32.3224
9380.000000	80.791	-24.4484
9500.000000	80.159	-16.2244
9620.000000	79.845	-7.4664
9750.000000	79.929	1.9448
9880.000000	80.426	10.3381
10000.000000	81.118	16.3749
10150.000000	82.049	20.9969
10300.000000	82.825	22.5772
10440.000000	83.299	22.2241
10600.000000	83.534	21.1193
10750.000000	83.523	20.4887
10900.000000	83.377	20.7656
11060.000000	83.164	22.1738
11200.000000	82.992	24.2197
11380.000000	82.843	27.6776
11500.000000	82.809	30.3550
11720.000000	82.912	35.7189
11800.000000	83.007	37.7517
12060.000000	83.560	44.3726
12200.000000	84.025	47.7635
12410.000000	84.966	52.2621
12500.000000	85.458	53.8445
12650.000000	86.385	55.8036
12800.000000	87.414	56.6229
13150.000000	89.826	51.9584
13200.000000	90.122	50.3795
13400.000000	91.050	41.8351
13600.000000	91.447	30.8643
13800.000000	91.267	19.8524
14000.000000	90.605	11.0704
14300.000000	89.147	3.9269
14500.000000	88.187	2.5353
14750.000000	87.300	2.8473
15000.000000	86.903	3.5524
15250.000000	86.951	2.8437
15500.000000	87.234	-0.7673
15750.000000	87.451	-8.1537
16000.000000	87.290	-18.7972
16250.000000	86.556	-30.4617
16500.000000	85.233	-40.4639
16750.000000	83.461	-47.4312
17000.000000	81.415	-51.3270
17250.000000	79.170	-51.7358
17500.000000	76.730	-47.4070
17750.000000	74.306	-39.2659
18000.000000	72.290	-30.5560
18250.000000	70.788	-22.9554
18500.000000	69.598	-16.1328
18750.000000	68.541	-9.2816
19000.000000	67.577	-1.9676
19250.000000	66.741	5.7343
19500.000000	66.056	13.5166
19750.000000	65.508	21.1427
20000.000000	65.064	28.4940
