* Measurement data measured by REW V5.19
* Source: Mic in at front panel (Pink) (Realtek(R) Audio), no input selected, L, volume: no control
* Format: 256k Log Swept Sine, 1 sweep at -12.0 dBFS  With no timing reference
* Dated: Jun 28, 2021 7:50:51 PM
* REW Settings:
*  C-weighting compensation: Off
*  Target level: 75.0 dB
* Note: NiceHCK DB3
* Measurement: Jun 28 19:50:51
* Smoothing: None
* Frequency Step: 1/48 octave
* Start Frequency: 20.3 Hz
*
* Freq(Hz)	SPL(dB)	Phase(degrees)
20.291	71.339	44.650
20.586	71.389	44.031
20.885	71.438	43.503
21.189	71.464	42.996
21.497	71.498	42.466
21.810	71.551	41.866
22.127	71.600	41.173
22.449	71.632	40.399
22.776	71.652	39.593
23.107	71.668	38.817
23.443	71.675	38.104
23.784	71.692	37.434
24.130	71.724	36.746
24.481	71.764	35.991
24.837	71.795	35.171
25.198	71.802	34.344
25.565	71.808	33.577
25.937	71.825	32.896
26.314	71.848	32.264
26.697	71.888	31.615
27.085	71.919	30.916
27.479	71.926	30.204
27.879	71.936	29.551
28.284	71.935	29.000
28.696	71.951	28.519
29.113	71.992	28.024
29.537	72.028	27.445
29.966	72.055	26.786
30.402	72.064	26.105
30.844	72.067	25.467
31.293	72.081	24.898
31.748	72.094	24.373
32.210	72.112	23.838
32.678	72.113	23.245
33.154	72.128	22.586
33.636	72.148	21.891
34.125	72.153	21.200
34.621	72.157	20.528
35.125	72.160	19.870
35.636	72.161	19.235
36.154	72.170	18.646
36.680	72.187	18.100
37.214	72.206	17.560
37.755	72.210	17.004
38.304	72.203	16.461
38.861	72.202	15.929
39.427	72.184	15.351
40.000	72.155	14.728
40.582	72.147	14.168
41.172	72.146	13.712
41.771	72.156	13.202
42.379	72.163	12.535
42.995	72.157	11.910
43.620	72.160	11.485
44.255	72.190	11.054
44.898	72.215	10.367
45.552	72.198	9.593
46.214	72.162	9.030
46.886	72.137	8.680
47.568	72.129	8.355
48.260	72.133	7.937
48.962	72.118	7.408
49.674	72.083	6.871
50.397	72.076	6.368
51.130	72.088	5.743
51.874	72.075	5.028
52.628	72.034	4.527
53.394	72.004	4.192
54.170	72.006	3.731
54.958	72.016	3.174
55.758	72.014	2.624
56.569	72.001	2.097
57.391	71.986	1.680
58.226	71.978	1.261
59.073	71.971	0.722
59.932	71.963	0.087
60.804	71.919	-0.618
61.688	71.845	-1.088
62.586	71.822	-1.363
63.496	71.836	-1.846
64.420	71.828	-2.378
65.357	71.820	-2.830
66.307	71.820	-3.445
67.272	71.786	-4.236
68.250	71.704	-4.694
69.243	71.665	-4.747
70.250	71.675	-5.211
71.272	71.593	-5.917
72.309	71.509	-5.947
73.360	71.542	-6.223
74.427	71.547	-7.043
75.510	71.531	-7.548
76.608	71.536	-8.765
77.723	71.279	-9.543
78.853	71.300	-8.349
80.000	71.363	-9.814
81.164	71.172	-9.536
82.344	71.271	-9.550
83.542	71.202	-10.122
84.757	71.211	-10.244
85.990	71.158	-10.780
87.241	71.095	-10.612
88.510	71.084	-10.921
89.797	71.005	-11.310
91.103	70.909	-12.183
92.428	70.817	-12.758
93.773	70.830	-13.864
95.137	70.773	-13.856
96.520	71.121	-14.294
97.924	71.012	-15.427
99.349	70.819	-15.516
100.794	70.647	-14.478
102.260	70.568	-15.752
103.747	70.438	-17.017
105.256	70.586	-16.940
106.787	70.506	-17.254
108.340	70.553	-16.845
109.916	70.012	-16.169
111.515	70.032	-18.250
113.137	70.148	-19.861
114.783	70.273	-19.014
116.452	70.507	-17.711
118.146	70.284	-16.557
119.865	72.761	7.622
121.608	70.660	-20.433
123.377	70.267	-16.934
125.171	69.598	-18.487
126.992	69.898	-20.716
128.839	70.260	-19.456
130.713	69.717	-20.569
132.615	69.508	-20.635
134.543	69.619	-20.871
136.500	69.371	-23.290
138.486	69.373	-21.484
140.500	69.451	-22.262
142.544	69.199	-22.695
144.617	69.166	-22.877
146.721	69.260	-23.045
148.855	69.306	-22.426
151.020	69.137	-21.913
153.217	68.685	-24.723
155.445	68.717	-23.498
157.706	69.197	-23.200
160.000	68.947	-24.666
162.327	69.023	-24.060
164.688	69.079	-24.858
167.084	68.858	-25.231
169.514	69.122	-26.758
171.980	69.567	-25.718
174.481	68.576	-20.537
177.019	68.676	-26.563
179.594	68.057	-25.990
182.206	68.044	-24.491
184.856	68.114	-24.267
187.545	68.008	-23.988
190.273	67.785	-27.878
193.041	67.864	-27.606
195.849	68.018	-26.766
198.697	67.903	-26.349
201.587	67.739	-26.479
204.520	67.702	-26.648
207.494	67.636	-26.157
210.512	67.530	-26.332
213.574	67.548	-26.026
216.681	67.492	-26.167
219.833	67.380	-26.010
223.030	67.333	-26.164
226.274	67.313	-26.470
229.565	67.244	-26.819
232.905	67.135	-26.662
236.292	67.053	-26.832
239.729	66.996	-27.003
243.216	66.857	-27.248
246.754	66.801	-27.250
250.343	66.697	-27.236
253.984	66.598	-27.203
257.678	66.514	-26.790
261.426	66.484	-26.813
265.229	66.405	-26.919
269.087	66.299	-26.968
273.001	66.209	-26.877
276.972	66.142	-26.418
281.000	66.019	-26.118
285.088	65.958	-26.258
289.234	65.917	-26.080
293.441	65.882	-26.309
297.710	65.782	-26.442
302.040	65.690	-26.393
306.433	65.609	-26.309
310.890	65.542	-26.160
315.412	65.468	-26.058
320.000	65.346	-26.068
324.655	65.256	-25.827
329.377	65.182	-25.550
334.168	65.089	-25.320
339.028	65.015	-25.075
343.959	64.923	-25.034
348.962	64.827	-24.725
354.038	64.759	-24.486
359.188	64.693	-24.253
364.412	64.606	-23.947
369.713	64.500	-23.890
375.090	64.411	-23.408
380.546	64.350	-23.101
386.081	64.266	-22.773
391.697	64.193	-22.431
397.395	64.117	-22.137
403.175	64.033	-21.729
409.039	63.969	-21.356
414.989	63.875	-21.089
421.025	63.783	-20.739
427.149	63.704	-20.302
433.362	63.648	-19.701
439.665	63.589	-19.357
446.060	63.514	-18.922
452.548	63.467	-18.303
459.131	63.451	-18.044
465.809	63.337	-17.998
472.584	63.258	-17.575
479.458	63.172	-17.015
486.432	63.133	-16.529
493.507	63.011	-16.451
500.686	62.921	-15.637
507.968	62.879	-14.994
515.357	62.823	-14.542
522.853	62.753	-14.087
530.458	62.640	-13.574
538.174	62.611	-12.730
546.002	62.526	-12.264
553.943	62.467	-11.490
562.001	62.422	-10.877
570.175	62.373	-10.324
578.469	62.290	-9.727
586.883	62.265	-8.987
595.419	62.145	-8.395
604.080	62.107	-7.525
612.866	62.073	-6.725
621.780	62.040	-6.161
630.824	61.915	-5.406
640.000	61.944	-4.340
649.309	61.865	-3.588
658.753	61.809	-2.583
668.335	61.881	-1.562
678.056	61.849	-1.078
687.919	61.810	-0.225
697.925	61.755	0.459
708.076	61.723	1.669
718.376	61.762	2.591
728.825	61.757	3.310
739.426	61.750	4.101
750.181	61.735	4.942
761.093	61.728	5.809
772.163	61.717	6.719
783.394	61.725	7.705
794.789	61.740	8.394
806.349	61.731	9.365
818.078	61.778	10.173
829.977	61.804	11.223
842.050	61.823	11.045
854.297	61.698	11.508
866.724	61.586	12.276
879.330	61.418	14.440
892.120	61.453	16.508
905.097	61.498	18.052
918.262	61.616	19.833
931.618	61.699	21.341
945.169	61.843	22.582
958.917	61.935	23.838
972.864	62.021	24.818
987.015	62.148	26.073
1001.371	62.294	26.807
1015.937	62.403	28.290
1030.714	62.492	29.281
1045.706	62.704	30.743
1060.916	62.857	31.505
1076.347	63.013	32.120
1092.003	63.176	33.051
1107.887	63.336	33.754
1124.001	63.525	34.440
1140.350	63.705	35.150
1156.937	63.853	35.887
1173.765	64.041	36.327
1190.838	64.195	37.104
1208.159	64.439	38.192
1225.732	64.643	37.984
1243.561	64.869	38.093
1261.649	65.016	38.718
1280.000	65.187	38.592
1298.618	65.354	39.015
1317.507	65.537	39.509
1336.670	65.721	39.760
1356.113	65.886	39.750
1375.838	66.103	39.782
1395.850	66.219	40.069
1416.153	66.358	41.020
1436.751	66.620	41.062
1457.649	66.834	40.972
1478.851	67.060	41.149
1500.362	67.295	41.166
1522.185	67.544	41.233
1544.326	67.828	41.348
1566.789	68.086	41.425
1589.578	68.453	41.910
1612.699	68.741	42.089
1636.156	68.870	41.514
1659.955	68.883	41.124
1684.099	68.866	40.929
1708.595	68.906	40.708
1733.447	69.019	40.158
1758.661	69.178	39.480
1784.241	69.405	38.826
1810.193	69.723	39.000
1836.523	70.019	38.238
1863.236	70.323	37.447
1890.338	70.616	36.415
1917.833	70.899	35.373
1945.729	71.122	33.992
1974.030	71.428	33.216
2002.743	71.679	31.563
2031.873	71.929	29.813
2061.428	72.099	28.143
2091.412	72.321	26.365
2121.832	72.432	24.435
2152.695	72.507	21.951
2184.007	72.494	20.361
2215.774	72.548	18.591
2248.003	72.569	16.745
2280.701	72.531	14.946
2313.874	72.475	13.377
2347.530	72.396	12.741
2381.676	72.384	11.663
2416.318	72.415	10.720
2451.464	72.427	9.229
2487.122	72.367	7.802
2523.298	72.327	6.376
2560.000	72.133	5.302
2597.236	72.045	4.790
2635.014	71.958	4.191
2673.341	71.885	3.677
2712.226	71.720	3.084
2751.676	71.671	2.983
2791.700	71.588	3.045
2832.306	71.517	2.759
2873.503	71.478	3.229
2915.299	71.449	2.516
2957.703	71.430	3.198
3000.724	71.432	3.680
3044.370	71.479	3.979
3088.652	71.517	3.825
3133.577	71.615	4.228
3179.156	71.771	4.593
3225.398	71.921	4.686
3272.312	72.147	4.793
3319.909	72.318	4.260
3368.198	72.568	4.022
3417.190	72.850	3.482
3466.894	73.130	2.087
3517.321	73.373	0.850
3568.482	73.623	-0.743
3620.387	73.838	-2.843
3673.046	74.133	-5.577
3726.472	74.265	-8.577
3780.675	74.407	-11.883
3835.666	74.529	-16.039
3891.457	74.486	-20.411
3948.060	74.316	-24.563
4005.486	74.031	-28.575
4063.747	73.652	-33.115
4122.855	72.998	-36.331
4182.824	72.259	-38.332
4243.664	71.438	-39.936
4305.390	70.542	-39.502
4368.013	69.719	-38.221
4431.547	69.088	-34.823
4496.005	68.616	-31.710
4561.401	68.367	-28.120
4627.749	68.389	-25.891
4695.061	68.365	-24.798
4763.352	68.292	-24.241
4832.637	68.224	-23.760
4902.929	68.029	-23.812
4974.244	67.821	-23.316
5046.596	67.581	-23.070
5120.000	67.370	-21.949
5194.472	67.138	-20.256
5270.027	66.885	-19.114
5346.682	66.634	-17.019
5424.451	66.440	-15.283
5503.352	66.208	-13.192
5583.399	65.951	-10.227
5664.612	65.782	-7.605
5747.006	65.623	-4.622
5830.598	65.544	-1.660
5915.406	65.463	0.980
6001.447	65.502	4.376
6088.740	65.500	7.678
6177.303	65.668	10.955
6267.154	65.876	14.335
6358.312	66.046	17.642
6450.796	66.333	20.897
6544.625	66.714	24.705
6639.818	67.193	28.062
6736.397	67.679	31.163
6834.380	68.314	34.117
6933.789	69.066	37.282
7034.643	70.014	39.717
7136.964	71.034	41.860
7240.773	72.244	42.816
7346.093	73.709	42.731
7452.944	75.503	39.740
7561.350	77.481	32.898
7671.332	79.174	18.896
7782.915	79.931	-1.148
7896.120	78.940	-20.509
8010.971	77.200	-33.012
8127.493	75.344	-38.444
8245.711	73.976	-40.811
8365.647	72.941	-41.306
8487.328	72.199	-41.520
8610.779	71.895	-41.427
8736.026	71.967	-43.808
8863.095	72.206	-51.542
8992.011	71.852	-65.652
9122.803	69.727	-82.063
9255.497	66.142	-90.153
9390.121	62.445	-86.159
9526.704	59.506	-74.342
9665.273	57.423	-59.548
9805.857	56.264	-43.269
9948.487	55.768	-27.339
10093.191	55.734	-14.521
10240.000	55.910	-2.903
10388.944	56.370	7.704
10540.055	56.787	16.403
10693.363	57.366	24.544
10848.902	57.994	31.708
11006.703	58.694	38.086
11166.799	59.737	44.808
11329.224	60.872	49.171
11494.012	62.050	52.427
11661.195	63.361	53.219
11830.812	64.775	54.182
12002.895	66.635	50.805
12177.480	68.183	40.847
12354.606	68.875	27.150
12534.309	68.493	13.457
12716.624	67.362	4.930
12901.592	66.241	0.287
13089.250	65.133	-1.514
13279.637	64.425	-1.864
13472.794	63.808	-2.096
13668.760	63.352	-2.542
13867.577	62.826	-4.493
14069.285	62.271	-7.774
14273.928	61.637	-12.843
14481.547	60.646	-17.701
14692.186	59.426	-22.363
14905.889	57.959	-23.330
15122.700	56.334	-22.672
15342.664	54.955	-18.445
15565.829	53.577	-13.807
15792.239	52.054	-8.139
16021.942	50.518	-2.049
16254.986	49.365	5.605
16491.422	48.640	12.341
16731.295	48.623	20.020
16974.656	48.765	26.743
17221.559	49.286	32.442
17472.053	50.483	34.998
17726.189	52.049	29.236
17984.021	52.762	9.033
18245.605	49.800	-14.221
18510.994	44.213	-18.495
18780.242	40.278	25.981
19053.408	45.654	23.431
19330.547	42.815	7.086
19611.715	39.886	11.381
19896.975	37.808	19.700
