* Measurement data measured by REW V5.20.13
* Source: P:\pw_04.txt
* Format: Comma/Tab/Space delimited data
* Dated: Oct 15, 2022 8:23:31 PM
* REW Settings:
*  C-weighting compensation: Off
*  Target level: 75.0 dB
* Note: 
* Measurement: pw_04
* Smoothing: 1/12 octave
* Frequency Step: 1/48 octave
* Start Frequency: 20.000 Hz
*
* Freq(Hz)	SPL(dB)
20.000000	68.000
20.299999	68.000
20.600000	68.000
20.900000	68.000
21.200001	68.000
21.400000	68.000
21.799999	68.000
22.000000	68.000
22.400000	68.000
22.700001	68.000
23.000000	68.000
23.299999	68.000
23.600000	68.000
24.000000	68.000
24.299999	68.000
24.700001	68.000
25.000000	68.000
25.400000	68.000
25.799999	68.000
26.200001	68.000
26.500000	68.000
26.900000	68.000
27.200001	68.000
27.600000	68.000
28.000000	68.000
28.500000	68.000
29.000000	68.000
29.500000	68.001
30.000000	68.002
30.400000	68.004
30.700001	68.006
31.100000	68.009
31.500000	68.012
32.000000	68.016
32.500000	68.019
33.000000	68.022
33.500000	68.025
34.000000	68.027
34.500000	68.029
35.000000	68.030
35.500000	68.031
36.000000	68.031
36.500000	68.030
37.000000	68.028
37.500000	68.026
38.200001	68.021
38.700001	68.016
39.500000	68.005
40.000000	67.997
40.599998	67.985
41.200001	67.971
41.799999	67.956
42.500000	67.934
43.099998	67.914
43.700001	67.891
44.400002	67.861
45.000000	67.834
45.500000	67.808
46.200001	67.770
46.799999	67.734
47.500000	67.689
48.200001	67.638
48.700001	67.599
49.400002	67.537
50.000000	67.477
50.799999	67.384
51.500000	67.293
52.200001	67.197
53.000000	67.083
53.799999	66.966
54.500000	66.863
55.200001	66.761
56.000000	66.644
57.000000	66.502
58.000000	66.366
59.000000	66.241
60.000000	66.132
60.799999	66.057
61.500000	66.000
62.200001	65.948
63.000000	65.892
64.000000	65.826
65.000000	65.762
66.000000	65.701
67.000000	65.642
68.000000	65.585
69.000000	65.529
70.000000	65.475
71.000000	65.423
72.000000	65.372
73.000000	65.323
74.000000	65.274
75.000000	65.227
76.199997	65.171
77.500000	65.111
78.800003	65.050
80.000000	64.992
81.199997	64.930
82.500000	64.860
83.800003	64.789
85.000000	64.724
86.199997	64.659
87.500000	64.590
88.500000	64.538
90.000000	64.461
91.199997	64.400
92.500000	64.336
93.800003	64.274
95.000000	64.218
96.199997	64.164
97.500000	64.107
98.800003	64.053
100.000000	64.005
101.500000	63.947
103.000000	63.891
104.400002	63.840
106.000000	63.782
107.500000	63.729
109.000000	63.676
110.599998	63.621
112.000000	63.573
113.800003	63.512
115.000000	63.472
117.199997	63.399
118.000000	63.373
120.599998	63.290
122.000000	63.246
124.099998	63.181
125.000000	63.153
126.500000	63.108
128.000000	63.064
131.500000	62.963
132.000000	62.949
134.000000	62.894
136.000000	62.840
138.000000	62.787
140.000000	62.736
143.000000	62.662
145.000000	62.615
147.500000	62.560
150.000000	62.510
152.500000	62.468
155.000000	62.430
157.500000	62.396
160.000000	62.365
162.500000	62.335
165.000000	62.307
167.500000	62.281
170.000000	62.256
172.500000	62.232
175.000000	62.209
177.500000	62.187
180.000000	62.166
182.500000	62.145
185.000000	62.124
187.500000	62.104
190.000000	62.083
192.500000	62.062
195.000000	62.040
197.500000	62.015
200.000000	61.987
203.000000	61.948
206.000000	61.904
209.000000	61.858
212.000000	61.811
214.000000	61.779
218.000000	61.716
220.000000	61.684
224.000000	61.620
227.000000	61.572
230.000000	61.524
233.000000	61.477
236.000000	61.429
240.000000	61.366
243.000000	61.318
247.000000	61.256
250.000000	61.209
254.000000	61.147
258.000000	61.086
262.000000	61.025
265.000000	60.981
269.000000	60.922
272.000000	60.878
276.000000	60.821
280.000000	60.764
285.000000	60.696
290.000000	60.630
295.000000	60.567
300.000000	60.511
304.000000	60.470
307.000000	60.442
311.000000	60.408
315.000000	60.376
320.000000	60.338
325.000000	60.303
330.000000	60.270
335.000000	60.239
340.000000	60.210
345.000000	60.183
350.000000	60.159
355.000000	60.135
360.000000	60.114
365.000000	60.095
370.000000	60.077
375.000000	60.061
382.000000	60.041
387.000000	60.028
395.000000	60.011
400.000000	60.002
406.000000	59.993
412.000000	59.985
418.000000	59.979
425.000000	59.974
431.000000	59.972
437.000000	59.970
444.000000	59.969
450.000000	59.970
455.000000	59.971
462.000000	59.974
468.000000	59.977
475.000000	59.981
482.000000	59.986
487.000000	59.989
494.000000	59.993
500.000000	59.996
508.000000	59.998
515.000000	59.998
522.000000	59.998
530.000000	59.997
538.000000	59.997
545.000000	59.996
552.000000	59.996
560.000000	59.996
570.000000	59.996
580.000000	59.997
590.000000	59.998
600.000000	59.998
608.000000	59.997
615.000000	59.996
622.000000	59.995
630.000000	59.993
640.000000	59.992
650.000000	59.991
660.000000	59.990
670.000000	59.991
680.000000	59.992
690.000000	59.994
700.000000	59.997
710.000000	60.002
720.000000	60.007
730.000000	60.014
740.000000	60.022
750.000000	60.031
762.000000	60.045
775.000000	60.063
788.000000	60.085
800.000000	60.111
812.000000	60.142
825.000000	60.182
838.000000	60.226
850.000000	60.269
862.000000	60.316
875.000000	60.369
885.000000	60.412
900.000000	60.479
912.000000	60.535
925.000000	60.598
938.000000	60.664
950.000000	60.726
962.000000	60.791
975.000000	60.862
988.000000	60.935
1000.000000	61.004
1015.000000	61.090
1030.000000	61.176
1044.000000	61.257
1060.000000	61.350
1075.000000	61.438
1090.000000	61.525
1106.000000	61.619
1120.000000	61.702
1138.000000	61.808
1150.000000	61.880
1172.000000	62.011
1180.000000	62.058
1206.000000	62.214
1220.000000	62.298
1241.000000	62.425
1250.000000	62.479
1265.000000	62.570
1280.000000	62.661
1315.000000	62.873
1320.000000	62.904
1340.000000	63.026
1360.000000	63.148
1380.000000	63.271
1400.000000	63.393
1430.000000	63.577
1450.000000	63.700
1475.000000	63.855
1500.000000	64.010
1525.000000	64.167
1550.000000	64.325
1575.000000	64.483
1600.000000	64.640
1625.000000	64.797
1650.000000	64.954
1675.000000	65.109
1700.000000	65.264
1725.000000	65.418
1750.000000	65.571
1775.000000	65.722
1800.000000	65.872
1825.000000	66.020
1850.000000	66.167
1875.000000	66.312
1900.000000	66.455
1925.000000	66.596
1950.000000	66.735
1975.000000	66.871
2000.000000	67.005
2030.000000	67.163
2060.000000	67.317
2090.000000	67.466
2120.000000	67.612
2140.000000	67.706
2180.000000	67.889
2200.000000	67.977
2240.000000	68.146
2270.000000	68.267
2300.000000	68.382
2330.000000	68.491
2360.000000	68.594
2400.000000	68.721
2430.000000	68.808
2470.000000	68.909
2500.000000	68.973
2540.000000	69.039
2580.000000	69.086
2620.000000	69.120
2650.000000	69.138
2690.000000	69.152
2720.000000	69.157
2760.000000	69.155
2800.000000	69.145
2850.000000	69.121
2900.000000	69.088
2950.000000	69.047
3000.000000	69.000
3040.000000	68.961
3070.000000	68.931
3110.000000	68.891
3150.000000	68.851
3200.000000	68.799
3250.000000	68.747
3300.000000	68.694
3350.000000	68.640
3400.000000	68.587
3450.000000	68.533
3500.000000	68.480
3550.000000	68.427
3600.000000	68.374
3650.000000	68.323
3700.000000	68.273
3750.000000	68.224
3820.000000	68.158
3870.000000	68.115
3950.000000	68.059
4000.000000	68.037
4060.000000	68.028
4120.000000	68.033
4180.000000	68.045
4250.000000	68.063
4310.000000	68.079
4370.000000	68.094
4440.000000	68.110
4500.000000	68.120
4550.000000	68.125
4620.000000	68.128
4680.000000	68.124
4750.000000	68.112
4820.000000	68.086
4870.000000	68.058
4940.000000	67.995
5000.000000	67.913
5080.000000	67.758
5150.000000	67.586
5220.000000	67.394
5300.000000	67.158
5380.000000	66.913
5450.000000	66.692
5520.000000	66.470
5600.000000	66.215
5700.000000	65.902
5800.000000	65.600
5900.000000	65.322
6000.000000	65.087
6080.000000	64.936
6150.000000	64.826
6220.000000	64.729
6300.000000	64.629
6400.000000	64.511
6500.000000	64.399
6600.000000	64.292
6700.000000	64.189
6800.000000	64.090
6900.000000	63.993
7000.000000	63.899
7100.000000	63.807
7200.000000	63.717
7300.000000	63.628
7400.000000	63.539
7500.000000	63.451
7620.000000	63.344
7750.000000	63.225
7880.000000	63.098
8000.000000	62.966
8120.000000	62.816
8250.000000	62.637
8380.000000	62.448
8500.000000	62.270
8620.000000	62.089
8750.000000	61.891
8850.000000	61.738
9000.000000	61.508
9120.000000	61.324
9250.000000	61.125
9380.000000	60.927
9500.000000	60.747
9620.000000	60.569
9750.000000	60.381
9880.000000	60.204
10000.000000	60.053
10150.000000	59.886
10300.000000	59.738
10440.000000	59.608
10600.000000	59.464
10750.000000	59.330
10900.000000	59.194
11060.000000	59.045
11200.000000	58.909
11380.000000	58.725
11500.000000	58.594
11720.000000	58.324
11800.000000	58.211
12060.000000	57.757
12200.000000	57.450
12410.000000	56.930
12500.000000	56.695
12650.000000	56.298
12800.000000	55.901
13150.000000	55.009
13200.000000	54.888
13400.000000	54.431
13600.000000	54.030
13800.000000	53.731
14000.000000	53.628
14300.000000	54.136
14500.000000	54.918
14750.000000	55.989
15000.000000	56.635
15250.000000	56.594
15500.000000	56.013
15750.000000	55.145
16000.000000	54.148
16250.000000	53.089
16500.000000	51.992
16750.000000	50.866
17000.000000	49.716
17250.000000	48.542
17500.000000	47.348
17750.000000	46.135
18000.000000	44.905
18250.000000	43.659
18500.000000	42.399
18750.000000	41.129
19000.000000	39.852
19250.000000	38.581
19500.000000	37.360
19750.000000	36.300
20000.000000	35.621
