* Measurement data measured by REW V5.20
* Source: Mic in at front panel (Pink) (Realtek(R) Audio), MICROPHONE (Master Volume), L, volume: 0.250
* Format: 256k Log Swept Sine, 1 sweep at -12.0 dBFS with no timing reference
* Dated: Oct 20, 2021 8:51:45 PM
* REW Settings:
*  C-weighting compensation: Off
*  Target level: 75.0 dB
* Note: QCY T1C
* Measurement: edx L Oct 20
* Smoothing: 1/12 octave
* Frequency Step: 1/48 octave
* Start Frequency: 20.000 Hz
*
* Freq(Hz)	SPL(dB)	Phase(degrees)
20.000000	103.9	173.5391
20.299999	103.8	172.5352
20.600000	103.8	171.5565
20.900000	103.7	170.6033
21.200001	103.6	169.6752
21.400000	103.6	169.0700
21.799999	103.5	167.8900
22.000000	103.5	167.3143
22.400000	103.4	166.1893
22.700001	103.3	165.3676
23.000000	103.3	164.5642
23.299999	103.2	163.7794
23.600000	103.1	163.0132
24.000000	103.0	162.0209
24.299999	103.0	161.2981
24.700001	102.9	160.3616
25.000000	102.8	159.6774
25.400000	102.7	158.7862
25.799999	102.6	157.9160
26.200001	102.5	157.0670
26.500000	102.4	156.4475
26.900000	102.3	155.6505
27.200001	102.3	155.0785
27.600000	102.2	154.3511
28.000000	102.1	153.6568
28.500000	102.0	152.8143
29.000000	101.9	151.9775
29.500000	101.7	151.1464
30.000000	101.6	150.3436
30.400000	101.5	149.7375
30.700001	101.4	149.3060
31.100000	101.4	148.7552
31.500000	101.3	148.2218
32.000000	101.1	147.5658
32.500000	101.0	146.9184
33.000000	100.9	146.2862
33.500000	100.8	145.6751
34.000000	100.7	145.0871
34.500000	100.6	144.5223
35.000000	100.5	143.9812
35.500000	100.4	143.4630
36.000000	100.3	142.9667
36.500000	100.2	142.4936
37.000000	100.1	142.0464
37.500000	100.0	141.6217
38.200001	99.8	141.0446
38.700001	99.7	140.6359
39.500000	99.6	140.0121
40.000000	99.5	139.6578
40.599998	99.3	139.2630
41.200001	99.2	138.8795
41.799999	99.1	138.4987
42.500000	98.9	138.0673
43.099998	98.8	137.7149
43.700001	98.7	137.3779
44.400002	98.6	137.0002
45.000000	98.5	136.6832
45.500000	98.4	136.4226
46.200001	98.3	136.0773
46.799999	98.2	135.8125
47.500000	98.1	135.5280
48.200001	97.9	135.2455
48.700001	97.8	135.0464
49.400002	97.7	134.7864
50.000000	97.6	134.5813
50.799999	97.4	134.3269
51.500000	97.3	134.1219
52.200001	97.2	133.9167
53.000000	97.0	133.6577
53.799999	96.9	133.4105
54.500000	96.8	133.2567
55.200001	96.7	133.1660
56.000000	96.7	133.1211
57.000000	96.5	133.1731
58.000000	96.4	133.3227
59.000000	96.2	133.4013
60.000000	96.1	133.2858
60.799999	95.9	133.0717
61.500000	95.7	132.8474
62.200001	95.6	132.6352
63.000000	95.5	132.4366
64.000000	95.5	132.2866
65.000000	95.5	132.3773
66.000000	95.5	132.8455
67.000000	95.5	133.5845
68.000000	95.5	134.3544
69.000000	95.3	135.1859
70.000000	95.1	136.4379
71.000000	94.8	137.8784
72.000000	94.6	138.4679
73.000000	94.4	137.8563
74.000000	94.3	136.5480
75.000000	94.2	135.1044
76.199997	94.1	133.7352
77.500000	94.2	132.8654
78.800003	94.2	132.5882
80.000000	94.1	132.7173
81.199997	94.0	132.9678
82.500000	93.9	133.0805
83.800003	93.7	132.8789
85.000000	93.6	132.5152
86.199997	93.5	132.2108
87.500000	93.4	132.0975
88.500000	93.3	132.1433
90.000000	93.2	132.3193
91.199997	93.1	132.4493
92.500000	93.0	132.5250
93.800003	92.8	132.5774
95.000000	92.7	132.6464
96.199997	92.6	132.7439
97.500000	92.5	132.8920
98.800003	92.4	133.0917
100.000000	92.3	133.3185
101.500000	92.1	133.6484
103.000000	92.0	134.0125
104.400002	91.9	134.3553
106.000000	91.8	134.7200
107.500000	91.7	135.0336
109.000000	91.6	135.3428
110.599998	91.5	135.6883
112.000000	91.4	135.9985
113.800003	91.3	136.3707
115.000000	91.2	136.5708
117.199997	91.0	136.8167
118.000000	91.0	136.9052
120.599998	90.8	137.5540
122.000000	90.7	138.1436
124.099998	90.7	139.0787
125.000000	90.6	139.4581
126.500000	90.6	140.0420
128.000000	90.5	140.5531
131.500000	90.5	141.5412
132.000000	90.4	141.6773
134.000000	90.4	142.2390
136.000000	90.4	142.7949
138.000000	90.3	143.2661
140.000000	90.3	143.6314
143.000000	90.2	144.1169
145.000000	90.2	144.4564
147.500000	90.1	144.8579
150.000000	90.1	145.1906
152.500000	90.1	145.4808
155.000000	90.0	145.7659
157.500000	90.0	146.0497
160.000000	89.9	146.3151
162.500000	89.9	146.5554
165.000000	89.8	146.7896
167.500000	89.8	147.0421
170.000000	89.7	147.2995
172.500000	89.7	147.5390
175.000000	89.6	147.7614
177.500000	89.6	147.9792
180.000000	89.5	148.1974
182.500000	89.5	148.4081
185.000000	89.4	148.6056
187.500000	89.4	148.8065
190.000000	89.3	149.0328
192.500000	89.3	149.2845
195.000000	89.3	149.5471
197.500000	89.2	149.8168
200.000000	89.2	150.0981
203.000000	89.1	150.4291
206.000000	89.1	150.7077
209.000000	89.0	150.9482
212.000000	89.0	151.2004
214.000000	89.0	151.3826
218.000000	88.9	151.7533
220.000000	88.9	151.9325
224.000000	88.8	152.2854
227.000000	88.8	152.5481
230.000000	88.8	152.8037
233.000000	88.7	153.0504
236.000000	88.7	153.2920
240.000000	88.6	153.6143
243.000000	88.6	153.8601
247.000000	88.5	154.1948
250.000000	88.5	154.4497
254.000000	88.4	154.7913
258.000000	88.4	155.1302
262.000000	88.3	155.4655
265.000000	88.3	155.7155
269.000000	88.3	156.0482
272.000000	88.2	156.2993
276.000000	88.2	156.6364
280.000000	88.2	156.9717
285.000000	88.1	157.3821
290.000000	88.1	157.7868
295.000000	88.0	158.1931
300.000000	88.0	158.5977
304.000000	88.0	158.9160
307.000000	87.9	159.1517
311.000000	87.9	159.4643
315.000000	87.9	159.7766
320.000000	87.8	160.1662
325.000000	87.8	160.5529
330.000000	87.8	160.9373
335.000000	87.7	161.3206
340.000000	87.7	161.7009
345.000000	87.7	162.0776
350.000000	87.7	162.4504
355.000000	87.6	162.8195
360.000000	87.6	163.1862
365.000000	87.6	163.5507
370.000000	87.5	163.9125
375.000000	87.5	164.2714
382.000000	87.5	164.7702
387.000000	87.4	165.1252
395.000000	87.4	165.6911
400.000000	87.4	166.0416
406.000000	87.4	166.4578
412.000000	87.3	166.8715
418.000000	87.3	167.2839
425.000000	87.3	167.7617
431.000000	87.3	168.1678
437.000000	87.2	168.5725
444.000000	87.2	169.0439
450.000000	87.2	169.4455
455.000000	87.2	169.7782
462.000000	87.2	170.2424
468.000000	87.2	170.6391
475.000000	87.1	171.0995
482.000000	87.1	171.5577
487.000000	87.1	171.8846
494.000000	87.1	172.3429
500.000000	87.1	172.7361
508.000000	87.1	173.2593
515.000000	87.0	173.7148
522.000000	87.0	174.1685
530.000000	87.0	174.6861
538.000000	87.0	175.2035
545.000000	87.0	175.6561
552.000000	87.0	176.1078
560.000000	87.0	176.6225
570.000000	87.0	177.2633
580.000000	87.0	177.9007
590.000000	87.0	178.5319
600.000000	87.0	179.1520
608.000000	87.0	179.6366
615.000000	87.0	-179.9502
622.000000	87.0	-179.5473
630.000000	87.0	-179.0938
640.000000	87.0	-178.5114
650.000000	87.0	-177.8730
660.000000	87.0	-177.1689
670.000000	87.0	-176.4321
680.000000	87.0	-175.6991
690.000000	87.0	-174.9839
700.000000	87.0	-174.2856
710.000000	87.0	-173.5998
720.000000	87.1	-172.9240
730.000000	87.1	-172.2563
740.000000	87.1	-171.5944
750.000000	87.1	-170.9368
762.000000	87.2	-170.1536
775.000000	87.2	-169.3148
788.000000	87.3	-168.4910
800.000000	87.3	-167.7509
812.000000	87.4	-167.0361
825.000000	87.4	-166.2904
838.000000	87.5	-165.5715
850.000000	87.6	-164.9263
862.000000	87.6	-164.2805
875.000000	87.7	-163.5479
885.000000	87.7	-162.9524
900.000000	87.8	-162.0275
912.000000	87.8	-161.2789
925.000000	87.9	-160.4718
938.000000	88.0	-159.6870
950.000000	88.1	-159.0022
962.000000	88.2	-158.3678
975.000000	88.3	-157.7395
988.000000	88.4	-157.1670
1000.000000	88.5	-156.6814
1015.000000	88.7	-156.1236
1030.000000	88.8	-155.6119
1044.000000	88.9	-155.1697
1060.000000	89.1	-154.7030
1075.000000	89.2	-154.3046
1090.000000	89.3	-153.9473
1106.000000	89.5	-153.6148
1120.000000	89.6	-153.3659
1138.000000	89.7	-153.0964
1150.000000	89.8	-152.9408
1172.000000	90.0	-152.6875
1180.000000	90.1	-152.6026
1206.000000	90.2	-152.3454
1220.000000	90.3	-152.2175
1241.000000	90.5	-152.0391
1250.000000	90.6	-151.9676
1265.000000	90.7	-151.8551
1280.000000	90.8	-151.7510
1315.000000	91.0	-151.5320
1320.000000	91.0	-151.5017
1340.000000	91.1	-151.3750
1360.000000	91.3	-151.2279
1380.000000	91.4	-151.0457
1400.000000	91.5	-150.8232
1430.000000	91.7	-150.4363
1450.000000	91.9	-150.1676
1475.000000	92.1	-149.8354
1500.000000	92.2	-149.5014
1525.000000	92.4	-149.1568
1550.000000	92.5	-148.8039
1575.000000	92.7	-148.4526
1600.000000	92.8	-148.1131
1625.000000	93.0	-147.7920
1650.000000	93.1	-147.4914
1675.000000	93.3	-147.2116
1700.000000	93.4	-146.9505
1725.000000	93.6	-146.7053
1750.000000	93.8	-146.4767
1775.000000	93.9	-146.2683
1800.000000	94.1	-146.0835
1825.000000	94.3	-145.9258
1850.000000	94.4	-145.7980
1875.000000	94.6	-145.7029
1900.000000	94.8	-145.6418
1925.000000	95.0	-145.6153
1950.000000	95.3	-145.6228
1975.000000	95.5	-145.6634
2000.000000	95.7	-145.7345
2030.000000	96.0	-145.8531
2060.000000	96.4	-145.9952
2090.000000	96.7	-146.1483
2120.000000	97.0	-146.3094
2140.000000	97.2	-146.4279
2180.000000	97.7	-146.7373
2200.000000	98.0	-146.9585
2240.000000	98.6	-147.6334
2270.000000	99.0	-148.4486
2300.000000	99.5	-149.6525
2330.000000	100.0	-151.3425
2360.000000	100.5	-153.5462
2400.000000	101.0	-157.1684
2430.000000	101.4	-160.2518
2470.000000	101.8	-164.6744
2500.000000	102.0	-168.1677
2540.000000	102.2	-173.0415
2580.000000	102.4	-178.1391
2620.000000	102.4	176.6396
2650.000000	102.4	172.7512
2690.000000	102.3	167.7618
2720.000000	102.1	164.2499
2760.000000	101.8	159.9570
2800.000000	101.5	156.1694
2850.000000	101.0	152.1874
2900.000000	100.4	149.0134
2950.000000	99.9	146.5526
3000.000000	99.3	144.6849
3040.000000	98.9	143.5410
3070.000000	98.6	142.8503
3110.000000	98.3	142.1058
3150.000000	97.9	141.5121
3200.000000	97.5	140.9167
3250.000000	97.1	140.4531
3300.000000	96.7	140.1417
3350.000000	96.3	140.0331
3400.000000	95.9	140.1725
3450.000000	95.5	140.5775
3500.000000	95.1	141.2308
3550.000000	94.8	142.0856
3600.000000	94.5	143.0787
3650.000000	94.2	144.1501
3700.000000	94.0	145.2611
3750.000000	93.8	146.3969
3820.000000	93.5	148.0323
3870.000000	93.3	149.2484
3950.000000	93.0	151.3257
4000.000000	92.8	152.7278
4060.000000	92.6	154.5138
4120.000000	92.5	156.3815
4180.000000	92.3	158.2867
4250.000000	92.2	160.5113
4310.000000	92.1	162.4020
4370.000000	92.1	164.2756
4440.000000	92.0	166.4442
4500.000000	92.0	168.2925
4550.000000	91.9	169.8244
4620.000000	91.9	171.9455
4680.000000	92.0	173.7377
4750.000000	92.0	175.8267
4820.000000	92.0	177.9637
4870.000000	92.1	179.5351
4940.000000	92.1	-178.2048
5000.000000	92.2	-176.2292
5080.000000	92.4	-173.5708
5150.000000	92.6	-171.2369
5220.000000	92.8	-168.9055
5300.000000	93.1	-166.2796
5380.000000	93.5	-163.7813
5450.000000	93.9	-161.7984
5520.000000	94.3	-160.0834
5600.000000	94.8	-158.4894
5700.000000	95.5	-156.9995
5800.000000	96.2	-155.9950
5900.000000	97.0	-155.5342
6000.000000	97.9	-155.8266
6080.000000	98.6	-156.8058
6150.000000	99.3	-158.3604
6220.000000	100.0	-160.6948
6300.000000	100.7	-164.4440
6400.000000	101.4	-170.8264
6500.000000	101.9	-178.8772
6600.000000	102.1	172.0440
6700.000000	102.0	162.8906
6800.000000	101.5	154.6520
6900.000000	100.8	148.0555
7000.000000	99.8	143.4081
7100.000000	98.8	140.6452
7200.000000	97.8	139.4944
7300.000000	96.8	139.6343
7400.000000	96.0	140.7864
7500.000000	95.2	142.7343
7620.000000	94.4	145.8733
7750.000000	93.9	149.9479
7880.000000	93.5	154.3649
8000.000000	93.4	158.4156
8120.000000	93.6	162.1132
8250.000000	94.0	165.3136
8380.000000	94.6	167.1877
8500.000000	95.3	167.2643
8620.000000	96.0	165.3266
8750.000000	96.6	160.6638
8850.000000	96.9	155.3491
9000.000000	97.0	145.4681
9120.000000	96.7	137.1949
9250.000000	95.9	129.2995
9380.000000	94.9	123.4282
9500.000000	93.7	120.0403
9620.000000	92.5	118.4348
9750.000000	91.1	118.3351
9880.000000	89.8	119.5352
10000.000000	88.7	121.4990
10150.000000	87.5	124.7964
10300.000000	86.3	128.7741
10440.000000	85.4	132.9325
10600.000000	84.4	138.0714
10750.000000	83.6	143.1652
10900.000000	82.9	148.4550
11060.000000	82.2	154.2582
11200.000000	81.7	159.4414
11380.000000	81.1	166.2213
11500.000000	80.8	170.8026
11720.000000	80.3	179.3105
11800.000000	80.1	-177.5654
12060.000000	79.7	-167.3280
12200.000000	79.6	-161.7830
12410.000000	79.5	-153.4588
12500.000000	79.5	-149.8972
12650.000000	79.6	-143.9852
12800.000000	79.7	-138.1346
13150.000000	80.4	-124.9771
13200.000000	80.5	-123.1723
13400.000000	81.1	-116.1834
13600.000000	81.9	-109.6690
13800.000000	83.0	-103.8701
14000.000000	84.3	-99.1852
14300.000000	86.5	-95.7036
14500.000000	88.1	-97.1158
14750.000000	89.6	-104.4736
15000.000000	90.4	-117.2345
15250.000000	90.3	-131.2085
15500.000000	89.4	-141.6052
15750.000000	88.2	-146.7767
16000.000000	87.2	-148.2774
16250.000000	86.7	-148.9324
16500.000000	86.7	-151.6787
16750.000000	86.9	-159.0194
17000.000000	86.8	-171.4670
17250.000000	86.0	174.1117
17500.000000	84.3	162.8467
17750.000000	81.9	157.8586
18000.000000	79.0	159.0247
18250.000000	76.0	164.6959
18500.000000	73.0	173.2752
18750.000000	70.1	-176.3191
19000.000000	67.6	-164.7782
19250.000000	65.4	-152.7038
19500.000000	63.5	-140.9917
19750.000000	62.0	-131.1683
