* Measurement data measured by REW V5.20.13
* Source: EXCL: Mic in at front panel (Pink) (Realtek(R) Audio), MICROPHONE (Master Volume), L, volume: 0.250
* Format: 256k Log Swept Sine, 1 sweep at -12.0 dBFS with no timing reference
* Dated: Jan 19, 2023 6:08:43 PM
* REW Settings:
*  C-weighting compensation: Off
*  Target level: 75.0 dB
* Note: Shine Standard L
* Measurement: Shine Standard L
* Smoothing: 1/12 octave
* Frequency Step: 1/48 octave
* Start Frequency: 20.000 Hz
*
* Freq(Hz)	SPL(dB)	Phase(degrees)
20.000000	85.062	38.7253
20.299999	85.153	38.4349
20.600000	85.261	37.9229
20.900000	85.362	37.1671
21.200001	85.434	36.2508
21.400000	85.463	35.6338
21.799999	85.486	34.5074
22.000000	85.488	34.0408
22.400000	85.495	33.3082
22.700001	85.514	32.8645
23.000000	85.547	32.4293
23.299999	85.589	31.9528
23.600000	85.635	31.4169
24.000000	85.694	30.6092
24.299999	85.730	29.9495
24.700001	85.762	29.0318
25.000000	85.772	28.3558
25.400000	85.768	27.5457
25.799999	85.754	26.9236
26.200001	85.753	26.5038
26.500000	85.773	26.2599
26.900000	85.829	25.8991
27.200001	85.886	25.5128
27.600000	85.962	24.7904
28.000000	86.017	23.8827
28.500000	86.040	22.6798
29.000000	86.023	21.5994
29.500000	85.986	20.7113
30.000000	85.941	20.0202
30.400000	85.907	19.6136
30.700001	85.889	19.3887
31.100000	85.882	19.1500
31.500000	85.897	18.9021
32.000000	85.936	18.4588
32.500000	85.973	17.8341
33.000000	85.995	17.1219
33.500000	86.004	16.4242
34.000000	86.012	15.7521
34.500000	86.023	15.0458
35.000000	86.028	14.2723
35.500000	86.019	13.4703
36.000000	85.994	12.7219
36.500000	85.960	12.0991
37.000000	85.931	11.6331
37.500000	85.922	11.2902
38.200001	85.953	10.8273
38.700001	85.995	10.3754
39.500000	86.046	9.4409
40.000000	86.054	8.8717
40.599998	86.048	8.3325
41.200001	86.044	7.9391
41.799999	86.045	7.5944
42.500000	86.042	7.1503
43.099998	86.022	6.7266
43.700001	85.982	6.3163
44.400002	85.916	5.9104
45.000000	85.857	5.6105
45.500000	85.810	5.3625
46.200001	85.749	5.0188
46.799999	85.713	4.7476
47.500000	85.710	4.3781
48.200001	85.746	3.7623
48.700001	85.776	3.1316
49.400002	85.800	2.1113
50.000000	85.803	1.2761
50.799999	85.799	0.3381
51.500000	85.793	-0.3319
52.200001	85.782	-0.8643
53.000000	85.763	-1.2930
53.799999	85.744	-1.5890
54.500000	85.723	-1.7995
55.200001	85.699	-1.9830
56.000000	85.674	-2.1921
57.000000	85.655	-2.5811
58.000000	85.638	-3.2024
59.000000	85.614	-3.9767
60.000000	85.580	-4.7603
60.799999	85.550	-5.3071
61.500000	85.527	-5.6968
62.200001	85.507	-6.0061
63.000000	85.488	-6.2715
64.000000	85.466	-6.4879
65.000000	85.443	-6.6111
66.000000	85.424	-6.6589
67.000000	85.422	-6.7506
68.000000	85.424	-7.0647
69.000000	85.410	-7.5591
70.000000	85.381	-8.1330
71.000000	85.344	-8.7644
72.000000	85.297	-9.4086
73.000000	85.246	-10.0109
74.000000	85.197	-10.5406
75.000000	85.154	-10.9963
76.199997	85.115	-11.4553
77.500000	85.087	-11.8802
78.800003	85.065	-12.3043
80.000000	85.036	-12.7200
81.199997	84.993	-13.1346
82.500000	84.938	-13.5690
83.800003	84.886	-14.0229
85.000000	84.848	-14.5109
86.199997	84.812	-15.0481
87.500000	84.772	-15.6000
88.500000	84.740	-15.9771
90.000000	84.682	-16.4389
91.199997	84.630	-16.6909
92.500000	84.578	-16.8790
93.800003	84.534	-17.0542
95.000000	84.497	-17.2472
96.199997	84.460	-17.4846
97.500000	84.413	-17.7891
98.800003	84.362	-18.1277
100.000000	84.317	-18.4683
101.500000	84.271	-18.9081
103.000000	84.232	-19.2385
104.400002	84.197	-19.3369
106.000000	84.151	-19.2324
107.500000	84.106	-19.1561
109.000000	84.065	-19.3950
110.599998	84.030	-19.9952
112.000000	84.014	-20.4417
113.800003	84.016	-20.2552
115.000000	84.008	-19.4568
117.199997	83.939	-16.5899
118.000000	83.923	-15.3734
120.599998	83.955	-14.1942
122.000000	83.882	-16.0591
124.099998	83.641	-19.7240
125.000000	83.550	-21.0061
126.500000	83.454	-22.4974
128.000000	83.410	-23.2375
131.500000	83.389	-23.5480
132.000000	83.387	-23.5964
134.000000	83.361	-23.9711
136.000000	83.288	-24.4988
138.000000	83.190	-24.9404
140.000000	83.114	-25.1589
143.000000	83.094	-25.2653
145.000000	83.084	-25.4578
147.500000	83.024	-25.9501
150.000000	82.942	-26.5435
152.500000	82.880	-26.7539
155.000000	82.841	-26.5800
157.500000	82.756	-26.4707
160.000000	82.621	-26.3372
162.500000	82.522	-26.0295
165.000000	82.470	-25.8747
167.500000	82.398	-26.1837
170.000000	82.292	-26.7872
172.500000	82.205	-27.2000
175.000000	82.176	-27.1489
177.500000	82.183	-26.7439
180.000000	82.196	-26.2304
182.500000	82.187	-25.6784
185.000000	82.134	-25.0472
187.500000	82.047	-24.4126
190.000000	82.001	-24.0148
192.500000	82.063	-24.2694
195.000000	82.166	-25.3497
197.500000	82.204	-26.9092
200.000000	82.169	-28.5810
203.000000	82.110	-30.3813
206.000000	82.081	-31.4227
209.000000	82.048	-31.3311
212.000000	81.997	-30.6093
214.000000	81.958	-30.2209
218.000000	81.885	-29.9092
220.000000	81.859	-29.8638
224.000000	81.811	-29.8437
227.000000	81.763	-29.9200
230.000000	81.704	-30.0870
233.000000	81.645	-30.2924
236.000000	81.593	-30.4686
240.000000	81.535	-30.6407
243.000000	81.489	-30.7704
247.000000	81.415	-30.9642
250.000000	81.356	-31.0833
254.000000	81.286	-31.1682
258.000000	81.233	-31.2181
262.000000	81.190	-31.3135
265.000000	81.157	-31.4152
269.000000	81.108	-31.5466
272.000000	81.068	-31.6234
276.000000	81.015	-31.6958
280.000000	80.969	-31.7488
285.000000	80.926	-31.8257
290.000000	80.890	-31.9739
295.000000	80.846	-32.2049
300.000000	80.788	-32.4385
304.000000	80.738	-32.5921
307.000000	80.701	-32.6919
311.000000	80.653	-32.8152
315.000000	80.605	-32.9319
320.000000	80.544	-33.0558
325.000000	80.484	-33.1409
330.000000	80.431	-33.1990
335.000000	80.383	-33.2601
340.000000	80.335	-33.3490
345.000000	80.284	-33.4536
350.000000	80.233	-33.5415
355.000000	80.184	-33.6048
360.000000	80.137	-33.6560
365.000000	80.091	-33.7046
370.000000	80.047	-33.7509
375.000000	80.004	-33.7937
382.000000	79.947	-33.8459
387.000000	79.907	-33.8777
395.000000	79.847	-33.9190
400.000000	79.812	-33.9440
406.000000	79.771	-33.9840
412.000000	79.730	-34.0369
418.000000	79.687	-34.0836
425.000000	79.639	-34.0989
431.000000	79.601	-34.0862
437.000000	79.568	-34.0768
444.000000	79.535	-34.0856
450.000000	79.511	-34.1244
455.000000	79.492	-34.1958
462.000000	79.458	-34.3433
468.000000	79.420	-34.4612
475.000000	79.371	-34.5497
482.000000	79.324	-34.6028
487.000000	79.291	-34.6311
494.000000	79.243	-34.6416
500.000000	79.203	-34.6127
508.000000	79.157	-34.5546
515.000000	79.120	-34.5170
522.000000	79.083	-34.4828
530.000000	79.039	-34.4172
538.000000	78.999	-34.3232
545.000000	78.968	-34.2344
552.000000	78.940	-34.1418
560.000000	78.912	-34.0373
570.000000	78.876	-33.9166
580.000000	78.839	-33.7887
590.000000	78.804	-33.6378
600.000000	78.771	-33.4484
608.000000	78.749	-33.2809
615.000000	78.731	-33.1334
622.000000	78.714	-32.9740
630.000000	78.695	-32.7565
640.000000	78.679	-32.4404
650.000000	78.675	-32.1073
660.000000	78.684	-31.7827
670.000000	78.703	-31.5207
680.000000	78.721	-31.3234
690.000000	78.732	-31.1300
700.000000	78.741	-30.8969
710.000000	78.755	-30.6217
720.000000	78.778	-30.3328
730.000000	78.809	-30.0516
740.000000	78.844	-29.7860
750.000000	78.882	-29.5382
762.000000	78.930	-29.2563
775.000000	78.985	-28.9525
788.000000	79.043	-28.6340
800.000000	79.104	-28.3078
812.000000	79.176	-27.9556
825.000000	79.273	-27.6110
838.000000	79.379	-27.3698
850.000000	79.474	-27.2170
862.000000	79.567	-27.0779
875.000000	79.668	-26.9130
885.000000	79.750	-26.7761
900.000000	79.882	-26.5784
912.000000	79.994	-26.4307
925.000000	80.124	-26.2885
938.000000	80.262	-26.1851
950.000000	80.396	-26.1367
962.000000	80.533	-26.1287
975.000000	80.685	-26.1549
988.000000	80.841	-26.2151
1000.000000	80.990	-26.3001
1015.000000	81.185	-26.4432
1030.000000	81.398	-26.6707
1044.000000	81.609	-27.0458
1060.000000	81.845	-27.7451
1075.000000	82.041	-28.6157
1090.000000	82.202	-29.5629
1106.000000	82.342	-30.5133
1120.000000	82.452	-31.2257
1138.000000	82.597	-31.9901
1150.000000	82.702	-32.4515
1172.000000	82.913	-33.3024
1180.000000	82.995	-33.6294
1206.000000	83.277	-34.8469
1220.000000	83.429	-35.6500
1241.000000	83.639	-37.0173
1250.000000	83.721	-37.6359
1265.000000	83.847	-38.6834
1280.000000	83.962	-39.7368
1315.000000	84.197	-42.1741
1320.000000	84.227	-42.5207
1340.000000	84.337	-43.9012
1360.000000	84.430	-45.2432
1380.000000	84.509	-46.4968
1400.000000	84.584	-47.6277
1430.000000	84.711	-49.1926
1450.000000	84.802	-50.2591
1475.000000	84.908	-51.6304
1500.000000	85.000	-52.9980
1525.000000	85.075	-54.3043
1550.000000	85.138	-55.4785
1575.000000	85.202	-56.4809
1600.000000	85.277	-57.3551
1625.000000	85.367	-58.1350
1650.000000	85.477	-58.8201
1675.000000	85.621	-59.4865
1700.000000	85.796	-60.2869
1725.000000	85.981	-61.3410
1750.000000	86.147	-62.6224
1775.000000	86.285	-63.9891
1800.000000	86.401	-65.3254
1825.000000	86.505	-66.6154
1850.000000	86.598	-67.8612
1875.000000	86.682	-69.0420
1900.000000	86.760	-70.1334
1925.000000	86.838	-71.1166
1950.000000	86.924	-71.9963
1975.000000	87.024	-72.8237
2000.000000	87.137	-73.6583
2030.000000	87.280	-74.6862
2060.000000	87.428	-75.7163
2090.000000	87.584	-76.7404
2120.000000	87.748	-77.7728
2140.000000	87.863	-78.4653
2180.000000	88.109	-79.8694
2200.000000	88.242	-80.6165
2240.000000	88.515	-82.2791
2270.000000	88.714	-83.6476
2300.000000	88.906	-85.0486
2330.000000	89.099	-86.4330
2360.000000	89.304	-87.8226
2400.000000	89.600	-89.8080
2430.000000	89.831	-91.4676
2470.000000	90.139	-93.9685
2500.000000	90.356	-96.0746
2540.000000	90.610	-99.1208
2580.000000	90.821	-102.3208
2620.000000	90.994	-105.6219
2650.000000	91.097	-108.1431
2690.000000	91.200	-111.5152
2720.000000	91.256	-114.0302
2760.000000	91.306	-117.3953
2800.000000	91.323	-120.8181
2850.000000	91.278	-125.1213
2900.000000	91.150	-129.2659
2950.000000	90.951	-133.0244
3000.000000	90.715	-136.3254
3040.000000	90.512	-138.6881
3070.000000	90.355	-140.3104
3110.000000	90.142	-142.2697
3150.000000	89.933	-144.0196
3200.000000	89.684	-145.9867
3250.000000	89.445	-147.7637
3300.000000	89.212	-149.3475
3350.000000	88.986	-150.6929
3400.000000	88.779	-151.8149
3450.000000	88.594	-152.7658
3500.000000	88.434	-153.5546
3550.000000	88.306	-154.2149
3600.000000	88.216	-154.8400
3650.000000	88.158	-155.5186
3700.000000	88.120	-156.2806
3750.000000	88.096	-157.1111
3820.000000	88.084	-158.4058
3870.000000	88.085	-159.4321
3950.000000	88.107	-161.2439
4000.000000	88.136	-162.5633
4060.000000	88.173	-164.4512
4120.000000	88.190	-166.6973
4180.000000	88.167	-169.2649
4250.000000	88.064	-172.5676
4310.000000	87.895	-175.4831
4370.000000	87.651	-178.3029
4440.000000	87.276	178.6937
4500.000000	86.881	176.5176
4550.000000	86.505	175.0935
4620.000000	85.927	173.8124
4680.000000	85.402	173.4644
4750.000000	84.793	173.9861
4820.000000	84.232	175.4250
4870.000000	83.882	176.9263
4940.000000	83.487	179.5681
5000.000000	83.254	-177.7905
5080.000000	83.124	-173.9562
5150.000000	83.199	-170.5791
5220.000000	83.455	-167.5593
5300.000000	83.921	-165.0418
5380.000000	84.478	-163.9120
5450.000000	84.958	-164.1570
5520.000000	85.373	-165.4088
5600.000000	85.731	-167.7473
5700.000000	85.977	-171.4377
5800.000000	86.006	-175.3034
5900.000000	85.846	-178.7575
6000.000000	85.553	178.5974
6080.000000	85.267	177.1414
6150.000000	85.003	176.3134
6220.000000	84.739	175.8488
6300.000000	84.447	175.7174
6400.000000	84.114	176.0990
6500.000000	83.838	176.9852
6600.000000	83.632	178.2298
6700.000000	83.503	179.7152
6800.000000	83.453	-178.6210
6900.000000	83.497	-176.8619
7000.000000	83.643	-175.1426
7100.000000	83.894	-173.6000
7200.000000	84.255	-172.3502
7300.000000	84.735	-171.5601
7400.000000	85.334	-171.5095
7500.000000	86.025	-172.5696
7620.000000	86.900	-175.8824
7750.000000	87.738	177.3196
7880.000000	88.228	167.0168
8000.000000	88.185	155.4904
8120.000000	87.590	144.1292
8250.000000	86.375	134.3580
8380.000000	84.721	128.5854
8500.000000	82.981	126.8744
8620.000000	81.206	127.9810
8750.000000	79.379	131.4641
8850.000000	78.080	135.4060
9000.000000	76.316	143.2345
9120.000000	75.084	151.1664
9250.000000	74.002	161.3835
9380.000000	73.315	172.9685
9500.000000	73.166	-175.7798
9620.000000	73.520	-164.8498
9750.000000	74.370	-154.3125
9880.000000	75.506	-145.8643
10000.000000	76.647	-140.2235
10150.000000	78.042	-135.9972
10300.000000	79.309	-134.4653
10440.000000	80.325	-134.9641
10600.000000	81.261	-137.1466
10750.000000	81.916	-140.1085
10900.000000	82.369	-143.3624
11060.000000	82.671	-146.5784
11200.000000	82.832	-148.8702
11380.000000	82.980	-150.9457
11500.000000	83.089	-151.8317
11720.000000	83.404	-152.8743
11800.000000	83.568	-153.2274
12060.000000	84.280	-155.1995
12200.000000	84.728	-157.2830
12410.000000	85.351	-162.3196
12500.000000	85.560	-165.2044
12650.000000	85.780	-170.7970
12800.000000	85.811	-176.9664
13150.000000	85.170	169.2512
13200.000000	85.015	167.5386
13400.000000	84.302	161.3873
13600.000000	83.490	156.0677
13800.000000	82.578	151.3151
14000.000000	81.507	147.4667
14300.000000	79.531	145.4722
14500.000000	78.078	147.7324
14750.000000	76.477	154.0195
15000.000000	75.541	161.8207
15250.000000	75.381	168.5165
15500.000000	75.725	172.5344
15750.000000	76.253	173.4818
16000.000000	76.798	171.6275
16250.000000	77.318	167.1396
16500.000000	77.784	159.4606
16750.000000	78.043	147.5857
17000.000000	77.801	131.7657
17250.000000	76.791	115.1408
17500.000000	74.943	102.2796
17750.000000	72.399	95.7587
18000.000000	69.397	95.2983
18250.000000	66.174	99.4836
18500.000000	62.915	107.2728
18750.000000	59.777	117.9396
19000.000000	56.964	129.9386
19250.000000	54.703	140.9068
19500.000000	52.929	149.8976
19750.000000	51.288	158.3656
20000.000000	49.507	168.5615
