* Measurement data measured by REW V5.20.4
* Source: Mic in at front panel (Pink) (Realtek(R) Audio), MICROPHONE (Master Volume), L, volume: 0.250
* Format: 256k Log Swept Sine, 1 sweep at -12.0 dBFS with no timing reference
* Dated: Jan 27, 2022 8:38:02 PM
* REW Settings:
*  C-weighting compensation: Off
*  Target level: 75.0 dB
* Note: Shuoer Tape Pro
* Measurement: DQ6S R Jan 27
* Smoothing: 1/12 octave
* Frequency Step: 1/48 octave
* Start Frequency: 20.000 Hz
*
* Freq(Hz)	SPL(dB)	Phase(degrees)
20.000000	96.349	63.6648
20.299999	96.427	62.8981
20.600000	96.503	62.1431
20.900000	96.578	61.3996
21.200001	96.651	60.6669
21.400000	96.700	60.1840
21.799999	96.795	59.2300
22.000000	96.842	58.7582
22.400000	96.934	57.8236
22.700001	97.001	57.1302
23.000000	97.065	56.4444
23.299999	97.126	55.7683
23.600000	97.185	55.1040
24.000000	97.259	54.2394
24.299999	97.313	53.6073
24.700001	97.382	52.7842
25.000000	97.434	52.1785
25.400000	97.500	51.3814
25.799999	97.566	50.5919
26.200001	97.629	49.8078
26.500000	97.674	49.2231
26.900000	97.733	48.4488
27.200001	97.774	47.8732
27.600000	97.827	47.1145
28.000000	97.877	46.3684
28.500000	97.935	45.4580
29.000000	97.990	44.5750
29.500000	98.043	43.7179
30.000000	98.096	42.8817
30.400000	98.138	42.2236
30.700001	98.169	41.7348
31.100000	98.210	41.0884
31.500000	98.250	40.4474
32.000000	98.299	39.6536
32.500000	98.345	38.8690
33.000000	98.390	38.0946
33.500000	98.432	37.3299
34.000000	98.471	36.5741
34.500000	98.508	35.8279
35.000000	98.543	35.0944
35.500000	98.574	34.3768
36.000000	98.604	33.6756
36.500000	98.632	32.9891
37.000000	98.658	32.3150
37.500000	98.683	31.6527
38.200001	98.716	30.7443
38.700001	98.738	30.1065
39.500000	98.770	29.1027
40.000000	98.788	28.4881
40.599998	98.808	27.7659
41.200001	98.826	27.0583
41.799999	98.843	26.3623
42.500000	98.861	25.5660
43.099998	98.874	24.8996
43.700001	98.886	24.2467
44.400002	98.900	23.4971
45.000000	98.911	22.8618
45.500000	98.919	22.3378
46.200001	98.929	21.6155
46.799999	98.937	21.0091
47.500000	98.945	20.3177
48.200001	98.951	19.6442
48.700001	98.956	19.1750
49.400002	98.962	18.5323
50.000000	98.967	17.9886
50.799999	98.970	17.2698
51.500000	98.969	16.6575
52.200001	98.967	16.0729
53.000000	98.964	15.4344
53.799999	98.962	14.8120
54.500000	98.961	14.2733
55.200001	98.961	13.7394
56.000000	98.961	13.1337
57.000000	98.962	12.3776
58.000000	98.962	11.6179
59.000000	98.958	10.8589
60.000000	98.949	10.1101
60.799999	98.937	9.5293
61.500000	98.925	9.0383
62.200001	98.911	8.5609
63.000000	98.895	8.0286
64.000000	98.874	7.3821
65.000000	98.853	6.7520
66.000000	98.833	6.1284
67.000000	98.810	5.5065
68.000000	98.784	4.9006
69.000000	98.756	4.3284
70.000000	98.729	3.7824
71.000000	98.702	3.2524
72.000000	98.677	2.7413
73.000000	98.655	2.2437
74.000000	98.635	1.7454
75.000000	98.616	1.2408
76.199997	98.590	0.6362
77.500000	98.560	0.0007
78.800003	98.528	-0.6176
80.000000	98.500	-1.1912
81.199997	98.470	-1.7775
82.500000	98.433	-2.4227
83.800003	98.389	-3.0573
85.000000	98.343	-3.6132
86.199997	98.293	-4.1328
87.500000	98.237	-4.6553
88.500000	98.194	-5.0289
90.000000	98.135	-5.5446
91.199997	98.093	-5.9365
92.500000	98.051	-6.3635
93.800003	98.007	-6.7928
95.000000	97.963	-7.1857
96.199997	97.919	-7.5736
97.500000	97.871	-7.9839
98.800003	97.825	-8.3765
100.000000	97.783	-8.7166
101.500000	97.730	-9.1047
103.000000	97.678	-9.4606
104.400002	97.632	-9.7944
106.000000	97.584	-10.2012
107.500000	97.541	-10.5841
109.000000	97.496	-10.9287
110.599998	97.442	-11.2634
112.000000	97.387	-11.5929
113.800003	97.313	-12.1817
115.000000	97.272	-12.7143
117.199997	97.232	-13.9540
118.000000	97.220	-14.4412
120.599998	97.119	-15.4541
122.000000	97.039	-15.3698
124.099998	96.933	-14.8743
125.000000	96.891	-14.6703
126.500000	96.829	-14.4097
128.000000	96.782	-14.2745
131.500000	96.703	-14.3645
132.000000	96.690	-14.4031
134.000000	96.633	-14.5933
136.000000	96.571	-14.8289
138.000000	96.517	-15.1018
140.000000	96.470	-15.3969
143.000000	96.392	-15.7967
145.000000	96.329	-16.0049
147.500000	96.250	-16.2285
150.000000	96.176	-16.4851
152.500000	96.101	-16.7808
155.000000	96.020	-17.0221
157.500000	95.940	-17.1647
160.000000	95.865	-17.2823
162.500000	95.793	-17.4517
165.000000	95.718	-17.6725
167.500000	95.639	-17.8850
170.000000	95.557	-18.0420
172.500000	95.477	-18.1427
175.000000	95.402	-18.2108
177.500000	95.330	-18.2687
180.000000	95.260	-18.3336
182.500000	95.193	-18.4162
185.000000	95.127	-18.5115
187.500000	95.061	-18.6045
190.000000	94.994	-18.6838
192.500000	94.927	-18.7470
195.000000	94.860	-18.7958
197.500000	94.792	-18.8269
200.000000	94.727	-18.8344
203.000000	94.652	-18.8122
206.000000	94.581	-18.7780
209.000000	94.512	-18.7603
212.000000	94.439	-18.7583
214.000000	94.389	-18.7507
218.000000	94.284	-18.6799
220.000000	94.233	-18.6150
224.000000	94.138	-18.4622
227.000000	94.071	-18.3531
230.000000	94.006	-18.2548
233.000000	93.941	-18.1646
236.000000	93.878	-18.0801
240.000000	93.793	-17.9739
243.000000	93.728	-17.8903
247.000000	93.638	-17.7514
250.000000	93.569	-17.6113
254.000000	93.483	-17.3698
258.000000	93.409	-17.1067
262.000000	93.344	-16.8894
265.000000	93.294	-16.7590
269.000000	93.224	-16.5847
272.000000	93.170	-16.4299
276.000000	93.101	-16.1855
280.000000	93.038	-15.9146
285.000000	92.971	-15.5833
290.000000	92.913	-15.3262
295.000000	92.851	-15.1542
300.000000	92.775	-14.9813
304.000000	92.710	-14.8040
307.000000	92.662	-14.6525
311.000000	92.598	-14.4397
315.000000	92.534	-14.2214
320.000000	92.453	-13.9249
325.000000	92.374	-13.5844
330.000000	92.300	-13.2164
335.000000	92.232	-12.8495
340.000000	92.166	-12.4965
345.000000	92.100	-12.1491
350.000000	92.032	-11.7924
355.000000	91.966	-11.4229
360.000000	91.901	-11.0459
365.000000	91.838	-10.6650
370.000000	91.777	-10.2790
375.000000	91.717	-9.8857
382.000000	91.636	-9.3232
387.000000	91.581	-8.9150
395.000000	91.496	-8.2526
400.000000	91.446	-7.8354
406.000000	91.388	-7.3396
412.000000	91.331	-6.8508
418.000000	91.274	-6.3521
425.000000	91.208	-5.7330
431.000000	91.159	-5.1794
437.000000	91.116	-4.6308
444.000000	91.072	-4.0142
450.000000	91.040	-3.5208
455.000000	91.014	-3.1508
462.000000	90.971	-2.6826
468.000000	90.926	-2.2743
475.000000	90.869	-1.7507
482.000000	90.814	-1.1962
487.000000	90.776	-0.7952
494.000000	90.722	-0.2127
500.000000	90.677	0.3193
508.000000	90.625	1.0433
515.000000	90.584	1.6602
522.000000	90.542	2.2693
530.000000	90.493	2.9863
538.000000	90.449	3.7281
545.000000	90.415	4.3808
552.000000	90.384	5.0314
560.000000	90.353	5.7641
570.000000	90.315	6.6583
580.000000	90.276	7.5551
590.000000	90.238	8.4724
600.000000	90.204	9.4196
608.000000	90.180	10.1855
615.000000	90.162	10.8512
622.000000	90.143	11.5231
630.000000	90.123	12.3188
640.000000	90.106	13.3484
650.000000	90.100	14.3879
660.000000	90.107	15.4097
670.000000	90.122	16.3556
680.000000	90.135	17.2208
690.000000	90.140	18.0641
700.000000	90.140	18.9312
710.000000	90.141	19.8322
720.000000	90.147	20.7472
730.000000	90.155	21.6653
740.000000	90.166	22.5897
750.000000	90.179	23.5235
762.000000	90.200	24.6558
775.000000	90.228	25.8905
788.000000	90.263	27.1292
800.000000	90.301	28.2869
812.000000	90.352	29.4546
825.000000	90.423	30.6695
838.000000	90.501	31.7701
850.000000	90.569	32.7107
862.000000	90.630	33.6358
875.000000	90.694	34.6516
885.000000	90.746	35.4432
900.000000	90.828	36.6270
912.000000	90.898	37.5714
925.000000	90.981	38.5864
938.000000	91.070	39.5718
950.000000	91.157	40.4425
962.000000	91.245	41.2818
975.000000	91.342	42.1702
988.000000	91.441	43.0454
1000.000000	91.534	43.8496
1015.000000	91.655	44.8671
1030.000000	91.791	45.8802
1044.000000	91.930	46.7638
1060.000000	92.095	47.6465
1075.000000	92.247	48.3785
1090.000000	92.397	49.0586
1106.000000	92.558	49.7255
1120.000000	92.698	50.2484
1138.000000	92.873	50.8396
1150.000000	92.987	51.1887
1172.000000	93.190	51.7407
1180.000000	93.262	51.9089
1206.000000	93.487	52.2429
1220.000000	93.583	52.2556
1241.000000	93.657	52.2653
1250.000000	93.661	52.3898
1265.000000	93.653	52.9099
1280.000000	93.661	53.8405
1315.000000	93.879	56.5781
1320.000000	93.929	56.9222
1340.000000	94.146	58.0763
1360.000000	94.366	58.9574
1380.000000	94.581	59.7157
1400.000000	94.795	60.4583
1430.000000	95.130	61.5340
1450.000000	95.356	62.1566
1475.000000	95.629	62.8552
1500.000000	95.885	63.5278
1525.000000	96.124	64.2151
1550.000000	96.347	64.9408
1575.000000	96.571	65.6871
1600.000000	96.807	66.3590
1625.000000	97.044	66.9029
1650.000000	97.277	67.3653
1675.000000	97.508	67.7987
1700.000000	97.740	68.2160
1725.000000	97.973	68.6073
1750.000000	98.204	68.9874
1775.000000	98.437	69.3909
1800.000000	98.684	69.8062
1825.000000	98.948	70.1586
1850.000000	99.223	70.4027
1875.000000	99.504	70.5483
1900.000000	99.793	70.6237
1925.000000	100.098	70.6567
1950.000000	100.426	70.6500
1975.000000	100.776	70.5573
2000.000000	101.140	70.3207
2030.000000	101.580	69.8283
2060.000000	102.016	69.1346
2090.000000	102.444	68.2559
2120.000000	102.861	67.1992
2140.000000	103.131	66.4114
2180.000000	103.658	64.6695
2200.000000	103.916	63.6927
2240.000000	104.417	61.4454
2270.000000	104.766	59.5005
2300.000000	105.086	57.3797
2330.000000	105.377	55.1329
2360.000000	105.642	52.7682
2400.000000	105.946	49.4139
2430.000000	106.128	46.7858
2470.000000	106.305	43.2462
2500.000000	106.389	40.6436
2540.000000	106.445	37.3625
2580.000000	106.458	34.3693
2620.000000	106.444	31.6254
2650.000000	106.417	29.7171
2690.000000	106.365	27.4077
2720.000000	106.322	25.8617
2760.000000	106.274	23.9747
2800.000000	106.235	22.1720
2850.000000	106.183	19.9753
2900.000000	106.115	17.8939
2950.000000	106.034	16.0312
3000.000000	105.955	14.4006
3040.000000	105.898	13.2264
3070.000000	105.859	12.4279
3110.000000	105.816	11.4929
3150.000000	105.794	10.6849
3200.000000	105.803	9.7526
3250.000000	105.852	8.7969
3300.000000	105.931	7.7628
3350.000000	106.041	6.6499
3400.000000	106.186	5.4034
3450.000000	106.365	3.9321
3500.000000	106.570	2.1896
3550.000000	106.798	0.1168
3600.000000	107.039	-2.3949
3650.000000	107.271	-5.4458
3700.000000	107.469	-9.0685
3750.000000	107.608	-13.2178
3820.000000	107.663	-19.7542
3870.000000	107.579	-24.7363
3950.000000	107.217	-32.6855
4000.000000	106.865	-37.4047
4060.000000	106.331	-42.6508
4120.000000	105.688	-47.2900
4180.000000	104.958	-51.2018
4250.000000	104.028	-54.7856
4310.000000	103.189	-56.9911
4370.000000	102.339	-58.4498
4440.000000	101.366	-59.3872
4500.000000	100.559	-59.6738
4550.000000	99.908	-59.6046
4620.000000	99.032	-59.1012
4680.000000	98.311	-58.3104
4750.000000	97.509	-56.9813
4820.000000	96.763	-55.3008
4870.000000	96.265	-53.9496
4940.000000	95.615	-51.9017
5000.000000	95.095	-50.0309
5080.000000	94.444	-47.3638
5150.000000	93.914	-44.8354
5220.000000	93.425	-42.1510
5300.000000	92.921	-38.9695
5380.000000	92.469	-35.7325
5450.000000	92.104	-32.8710
5520.000000	91.764	-29.9486
5600.000000	91.408	-26.5103
5700.000000	91.024	-22.1193
5800.000000	90.709	-17.7195
5900.000000	90.451	-13.3372
6000.000000	90.245	-8.9068
6080.000000	90.126	-5.3270
6150.000000	90.057	-2.1974
6220.000000	90.019	0.9058
6300.000000	90.010	4.4202
6400.000000	90.052	8.7955
6500.000000	90.160	13.1482
6600.000000	90.342	17.4222
6700.000000	90.597	21.5729
6800.000000	90.929	25.5984
6900.000000	91.346	29.4691
7000.000000	91.856	33.0928
7100.000000	92.466	36.3646
7200.000000	93.190	39.1884
7300.000000	94.041	41.4068
7400.000000	95.017	42.7430
7500.000000	96.090	42.8249
7620.000000	97.419	40.6672
7750.000000	98.729	34.7467
7880.000000	99.647	24.7949
8000.000000	99.950	13.1675
8120.000000	99.669	1.5205
8250.000000	98.795	-8.5844
8380.000000	97.532	-14.8182
8500.000000	96.227	-17.2690
8620.000000	94.953	-17.2677
8750.000000	93.731	-15.3740
8850.000000	92.938	-13.0062
9000.000000	92.010	-8.4738
9120.000000	91.495	-4.3296
9250.000000	91.160	0.4272
9380.000000	91.060	5.2823
9500.000000	91.189	9.6534
9620.000000	91.539	13.6837
9750.000000	92.171	17.3534
9880.000000	93.040	19.8514
10000.000000	93.990	20.6267
10150.000000	95.242	18.8710
10300.000000	96.396	13.5489
10440.000000	97.233	5.2098
10600.000000	97.747	-7.8049
10750.000000	97.675	-21.9958
10900.000000	96.992	-35.7861
11060.000000	95.624	-47.3214
11200.000000	94.014	-53.5201
11380.000000	91.637	-56.3766
11500.000000	90.007	-55.7846
11720.000000	87.200	-51.3532
11800.000000	86.282	-49.0275
12060.000000	83.737	-39.9358
12200.000000	82.633	-34.4141
12410.000000	81.277	-25.6291
12500.000000	80.795	-21.7368
12650.000000	80.113	-15.1393
12800.000000	79.575	-8.4651
13150.000000	78.843	6.9906
13200.000000	78.795	9.1521
13400.000000	78.739	17.6058
13600.000000	78.897	25.6782
13800.000000	79.274	33.2346
14000.000000	79.885	40.0748
14300.000000	81.243	48.2561
14500.000000	82.386	51.5796
14750.000000	83.903	52.1888
15000.000000	85.238	47.8679
15250.000000	86.079	38.7603
15500.000000	86.203	27.2980
15750.000000	85.592	17.7159
16000.000000	84.564	12.9560
16250.000000	83.707	12.0598
16500.000000	83.452	11.5865
16750.000000	83.720	8.1627
17000.000000	84.060	-0.3385
17250.000000	83.986	-13.7093
17500.000000	83.174	-28.6365
17750.000000	81.553	-40.5035
18000.000000	79.263	-46.5970
18250.000000	76.538	-46.9320
18500.000000	73.615	-42.8130
18750.000000	70.694	-35.5586
19000.000000	67.921	-26.1541
19250.000000	65.391	-15.4272
19500.000000	63.180	-4.4462
19750.000000	61.423	5.0812
