* Measurement data measured by REW V5.20.13
* Source: Mic in at front panel (Pink) (Realtek(R) Audio), no input selected, L, volume: 0.250
* Format: 256k Log Swept Sine, 1 sweep at -12.0 dBFS with no timing reference
* Dated: Feb 25, 2023 1:10:21 PM
* REW Settings:
*  C-weighting compensation: Off
*  Target level: 75.0 dB
* Note: Simgot EA500 Black  L
* Measurement: Simgot EA500 Black  L
* Smoothing: 1/12 octave
* Frequency Step: 1/48 octave
* Start Frequency: 20.000 Hz
*
* Freq(Hz)	SPL(dB)	Phase(degrees)
20.000000	101.226	58.0066
20.299999	101.286	57.3138
20.600000	101.340	56.6290
20.900000	101.389	55.9533
21.200001	101.435	55.2891
21.400000	101.466	54.8542
21.799999	101.531	54.0044
22.000000	101.564	53.5895
22.400000	101.633	52.7770
22.700001	101.687	52.1792
23.000000	101.741	51.5879
23.299999	101.794	51.0013
23.600000	101.847	50.4192
24.000000	101.915	49.6520
24.299999	101.963	49.0853
24.700001	102.022	48.3438
25.000000	102.062	47.7994
25.400000	102.112	47.0898
25.799999	102.159	46.3992
26.200001	102.204	45.7275
26.500000	102.237	45.2355
26.900000	102.278	44.5937
27.200001	102.306	44.1213
27.600000	102.341	43.5013
28.000000	102.374	42.8906
28.500000	102.416	42.1401
29.000000	102.459	41.4053
29.500000	102.502	40.6866
30.000000	102.543	39.9817
30.400000	102.576	39.4257
30.700001	102.601	39.0132
31.100000	102.634	38.4704
31.500000	102.665	37.9374
32.000000	102.701	37.2856
32.500000	102.733	36.6449
33.000000	102.764	36.0084
33.500000	102.793	35.3752
34.000000	102.821	34.7553
34.500000	102.849	34.1613
35.000000	102.877	33.5964
35.500000	102.910	33.0503
36.000000	102.946	32.5087
36.500000	102.983	31.9653
37.000000	103.017	31.4245
37.500000	103.045	30.8932
38.200001	103.074	30.1692
38.700001	103.088	29.6624
39.500000	103.103	28.8641
40.000000	103.111	28.3743
40.599998	103.124	27.7983
41.200001	103.140	27.2366
41.799999	103.157	26.6894
42.500000	103.178	26.0691
43.099998	103.197	25.5555
43.700001	103.215	25.0616
44.400002	103.236	24.5047
45.000000	103.252	24.0322
45.500000	103.264	23.6371
46.200001	103.278	23.0881
46.799999	103.287	22.6331
47.500000	103.294	22.1244
48.200001	103.298	21.6302
48.700001	103.300	21.2804
49.400002	103.303	20.7931
50.000000	103.308	20.3785
50.799999	103.321	19.8322
51.500000	103.334	19.3627
52.200001	103.346	18.9049
53.000000	103.356	18.4006
53.799999	103.362	17.9188
54.500000	103.369	17.5131
55.200001	103.378	17.1160
56.000000	103.390	16.6641
57.000000	103.404	16.0888
58.000000	103.412	15.4993
59.000000	103.415	14.9131
60.000000	103.417	14.3376
60.799999	103.416	13.8804
61.500000	103.415	13.4847
62.200001	103.412	13.1016
63.000000	103.408	12.6921
64.000000	103.404	12.2354
65.000000	103.406	11.8121
66.000000	103.409	11.3687
67.000000	103.410	10.8885
68.000000	103.404	10.4053
69.000000	103.390	9.9531
70.000000	103.373	9.5249
71.000000	103.352	9.0995
72.000000	103.327	8.6779
73.000000	103.302	8.2820
74.000000	103.281	7.9286
75.000000	103.265	7.6213
76.199997	103.254	7.3185
77.500000	103.256	7.0476
78.800003	103.275	6.7728
80.000000	103.302	6.4602
81.199997	103.328	6.0585
82.500000	103.348	5.5264
83.800003	103.355	4.9200
85.000000	103.348	4.3317
86.199997	103.328	3.7711
87.500000	103.300	3.2290
88.500000	103.277	2.8539
90.000000	103.244	2.3378
91.199997	103.220	1.9548
92.500000	103.196	1.5589
93.800003	103.175	1.1708
95.000000	103.158	0.8172
96.199997	103.140	0.4736
97.500000	103.119	0.1197
98.800003	103.096	-0.2151
100.000000	103.073	-0.5121
101.500000	103.044	-0.8643
103.000000	103.020	-1.1949
104.400002	103.001	-1.4963
106.000000	102.981	-1.8496
107.500000	102.958	-2.2057
109.000000	102.931	-2.5934
110.599998	102.901	-3.0306
112.000000	102.874	-3.4081
113.800003	102.837	-3.8241
115.000000	102.807	-4.0157
117.199997	102.740	-4.1563
118.000000	102.716	-4.1703
120.599998	102.647	-4.4037
122.000000	102.609	-4.7100
124.099998	102.551	-5.2219
125.000000	102.531	-5.4158
126.500000	102.505	-5.6849
128.000000	102.482	-5.8876
131.500000	102.418	-6.1437
132.000000	102.409	-6.1634
134.000000	102.384	-6.2555
136.000000	102.371	-6.4328
138.000000	102.356	-6.7019
140.000000	102.332	-7.0117
143.000000	102.290	-7.4639
145.000000	102.270	-7.7667
147.500000	102.250	-8.1863
150.000000	102.220	-8.5999
152.500000	102.173	-8.8936
155.000000	102.125	-9.0665
157.500000	102.087	-9.2278
160.000000	102.057	-9.4477
162.500000	102.023	-9.7193
165.000000	101.978	-9.9987
167.500000	101.916	-10.2473
170.000000	101.839	-10.4495
172.500000	101.755	-10.6109
175.000000	101.677	-10.7429
177.500000	101.613	-10.8641
180.000000	101.563	-11.0026
182.500000	101.520	-11.1633
185.000000	101.484	-11.3287
187.500000	101.456	-11.4792
190.000000	101.430	-11.5906
192.500000	101.401	-11.6714
195.000000	101.369	-11.7769
197.500000	101.333	-11.9389
200.000000	101.292	-12.1121
203.000000	101.241	-12.2654
206.000000	101.192	-12.3735
209.000000	101.141	-12.4854
212.000000	101.084	-12.6056
214.000000	101.042	-12.6731
218.000000	100.954	-12.7359
220.000000	100.911	-12.7322
224.000000	100.837	-12.6998
227.000000	100.791	-12.6826
230.000000	100.750	-12.6776
233.000000	100.711	-12.6806
236.000000	100.673	-12.6909
240.000000	100.619	-12.7213
243.000000	100.574	-12.7526
247.000000	100.511	-12.7784
250.000000	100.462	-12.7635
254.000000	100.402	-12.6837
258.000000	100.353	-12.5777
262.000000	100.310	-12.5244
265.000000	100.275	-12.5240
269.000000	100.222	-12.5205
272.000000	100.179	-12.4867
276.000000	100.124	-12.4011
280.000000	100.073	-12.2919
285.000000	100.023	-12.1627
290.000000	99.985	-12.1078
295.000000	99.941	-12.1400
300.000000	99.885	-12.1691
304.000000	99.838	-12.1503
307.000000	99.804	-12.1160
311.000000	99.757	-12.0581
315.000000	99.707	-11.9928
320.000000	99.641	-11.8849
325.000000	99.577	-11.7299
330.000000	99.519	-11.5447
335.000000	99.464	-11.3599
340.000000	99.409	-11.1915
345.000000	99.354	-11.0306
350.000000	99.302	-10.8594
355.000000	99.255	-10.6724
360.000000	99.208	-10.4745
365.000000	99.159	-10.2696
370.000000	99.108	-10.0570
375.000000	99.058	-9.8359
382.000000	98.994	-9.5149
387.000000	98.951	-9.2798
395.000000	98.886	-8.8929
400.000000	98.845	-8.6455
406.000000	98.797	-8.3502
412.000000	98.748	-8.0592
418.000000	98.699	-7.7572
425.000000	98.646	-7.3687
431.000000	98.608	-7.0126
437.000000	98.575	-6.6599
444.000000	98.542	-6.2697
450.000000	98.517	-5.9694
455.000000	98.497	-5.7599
462.000000	98.462	-5.5153
468.000000	98.425	-5.2975
475.000000	98.378	-4.9942
482.000000	98.334	-4.6576
487.000000	98.301	-4.4111
494.000000	98.254	-4.0430
500.000000	98.215	-3.6929
508.000000	98.170	-3.2094
515.000000	98.135	-2.8012
522.000000	98.099	-2.3979
530.000000	98.056	-1.9130
538.000000	98.017	-1.4016
545.000000	97.986	-0.9489
552.000000	97.959	-0.4957
560.000000	97.931	0.0133
570.000000	97.898	0.6294
580.000000	97.863	1.2495
590.000000	97.825	1.8906
600.000000	97.789	2.5627
608.000000	97.766	3.1113
615.000000	97.749	3.5895
622.000000	97.733	4.0760
630.000000	97.714	4.6616
640.000000	97.696	5.4304
650.000000	97.688	6.2100
660.000000	97.692	6.9719
670.000000	97.709	7.6592
680.000000	97.723	8.2681
690.000000	97.727	8.8578
700.000000	97.725	9.4745
710.000000	97.723	10.1276
720.000000	97.726	10.7968
730.000000	97.732	11.4714
740.000000	97.740	12.1542
750.000000	97.749	12.8480
762.000000	97.764	13.6949
775.000000	97.785	14.6245
788.000000	97.815	15.5604
800.000000	97.850	16.4407
812.000000	97.897	17.3333
825.000000	97.963	18.2525
838.000000	98.036	19.0596
850.000000	98.097	19.7310
862.000000	98.151	20.3879
875.000000	98.207	21.1141
885.000000	98.252	21.6828
900.000000	98.326	22.5298
912.000000	98.388	23.2004
925.000000	98.461	23.9137
938.000000	98.540	24.5920
950.000000	98.615	25.1749
962.000000	98.690	25.7239
975.000000	98.771	26.2974
988.000000	98.850	26.8615
1000.000000	98.922	27.3871
1015.000000	99.014	28.0754
1030.000000	99.114	28.7856
1044.000000	99.220	29.4089
1060.000000	99.348	30.0133
1075.000000	99.466	30.4965
1090.000000	99.581	30.9437
1106.000000	99.705	31.3958
1120.000000	99.813	31.7719
1138.000000	99.950	32.2363
1150.000000	100.038	32.5386
1172.000000	100.199	33.0890
1180.000000	100.259	33.2893
1206.000000	100.472	33.8743
1220.000000	100.592	34.0945
1241.000000	100.763	34.3155
1250.000000	100.830	34.3929
1265.000000	100.936	34.5213
1280.000000	101.035	34.6576
1315.000000	101.259	35.0152
1320.000000	101.291	35.0668
1340.000000	101.418	35.2673
1360.000000	101.543	35.4748
1380.000000	101.666	35.7217
1400.000000	101.796	36.0295
1430.000000	102.023	36.5023
1450.000000	102.189	36.7286
1475.000000	102.403	36.9250
1500.000000	102.628	37.0842
1525.000000	102.866	37.2476
1550.000000	103.116	37.4418
1575.000000	103.368	37.6508
1600.000000	103.591	37.7807
1625.000000	103.742	37.7777
1650.000000	103.807	37.6866
1675.000000	103.819	37.5583
1700.000000	103.826	37.4077
1725.000000	103.867	37.2303
1750.000000	103.956	37.0476
1775.000000	104.095	36.9005
1800.000000	104.276	36.7823
1825.000000	104.484	36.6196
1850.000000	104.702	36.3643
1875.000000	104.919	36.0220
1900.000000	105.133	35.6186
1925.000000	105.343	35.1824
1950.000000	105.551	34.7229
1975.000000	105.760	34.2039
2000.000000	105.966	33.5801
2030.000000	106.199	32.6923
2060.000000	106.411	31.6974
2090.000000	106.603	30.6284
2120.000000	106.773	29.5045
2140.000000	106.875	28.7451
2180.000000	107.066	27.2408
2200.000000	107.160	26.4738
2240.000000	107.339	24.8311
2270.000000	107.454	23.5084
2300.000000	107.548	22.1587
2330.000000	107.624	20.8273
2360.000000	107.688	19.5083
2400.000000	107.756	17.7101
2430.000000	107.785	16.3325
2470.000000	107.790	14.5175
2500.000000	107.767	13.2245
2540.000000	107.700	11.6978
2580.000000	107.611	10.4863
2620.000000	107.523	9.5725
2650.000000	107.466	9.0524
2690.000000	107.412	8.5457
2720.000000	107.399	8.2521
2760.000000	107.422	7.8077
2800.000000	107.477	7.1017
2850.000000	107.539	5.7424
2900.000000	107.543	4.0272
2950.000000	107.470	2.3059
3000.000000	107.342	0.7968
3040.000000	107.217	-0.2332
3070.000000	107.116	-0.8903
3110.000000	106.977	-1.5922
3150.000000	106.846	-2.1139
3200.000000	106.700	-2.5969
3250.000000	106.571	-2.9698
3300.000000	106.446	-3.2467
3350.000000	106.321	-3.3815
3400.000000	106.202	-3.3741
3450.000000	106.085	-3.2549
3500.000000	105.971	-3.0126
3550.000000	105.869	-2.6617
3600.000000	105.790	-2.2781
3650.000000	105.734	-1.9341
3700.000000	105.693	-1.6449
3750.000000	105.665	-1.3798
3820.000000	105.654	-1.0296
3870.000000	105.661	-0.7694
3950.000000	105.702	-0.2548
4000.000000	105.750	0.0864
4060.000000	105.817	0.4264
4120.000000	105.880	0.6637
4180.000000	105.930	0.8025
4250.000000	105.965	0.8464
4310.000000	105.978	0.8315
4370.000000	105.990	0.7755
4440.000000	106.012	0.5793
4500.000000	106.035	0.2528
4550.000000	106.052	-0.1272
4620.000000	106.066	-0.8033
4680.000000	106.064	-1.4645
4750.000000	106.053	-2.2646
4820.000000	106.038	-3.1049
4870.000000	106.025	-3.7496
4940.000000	105.997	-4.7076
5000.000000	105.959	-5.5552
5080.000000	105.874	-6.6310
5150.000000	105.770	-7.4153
5220.000000	105.646	-8.0140
5300.000000	105.485	-8.4860
5380.000000	105.308	-8.7644
5450.000000	105.137	-8.8857
5520.000000	104.951	-8.9004
5600.000000	104.724	-8.7755
5700.000000	104.434	-8.4004
5800.000000	104.160	-7.8098
5900.000000	103.908	-7.0219
6000.000000	103.687	-6.0000
6080.000000	103.540	-5.0358
6150.000000	103.437	-4.1271
6220.000000	103.355	-3.1918
6300.000000	103.285	-2.0988
6400.000000	103.228	-0.6758
6500.000000	103.211	0.7999
6600.000000	103.237	2.2682
6700.000000	103.302	3.6833
6800.000000	103.406	5.0493
6900.000000	103.556	6.3506
7000.000000	103.753	7.5189
7100.000000	103.996	8.4824
7200.000000	104.285	9.1947
7300.000000	104.628	9.5795
7400.000000	105.030	9.4904
7500.000000	105.477	8.7551
7620.000000	106.035	6.8040
7750.000000	106.604	3.0789
7880.000000	107.036	-2.5820
8000.000000	107.217	-9.3856
8120.000000	107.127	-17.1136
8250.000000	106.697	-25.5648
8380.000000	105.936	-33.0430
8500.000000	104.996	-38.3848
8620.000000	103.910	-41.9992
8750.000000	102.664	-44.0961
8850.000000	101.704	-44.5931
9000.000000	100.325	-43.8638
9120.000000	99.307	-42.3123
9250.000000	98.296	-39.9164
9380.000000	97.378	-36.9353
9500.000000	96.615	-33.7935
9620.000000	95.928	-30.3779
9750.000000	95.262	-26.4261
9880.000000	94.675	-22.2662
10000.000000	94.202	-18.2990
10150.000000	93.695	-13.2045
10300.000000	93.275	-7.9839
10440.000000	92.962	-3.0433
10600.000000	92.690	2.6674
10750.000000	92.516	8.0651
10900.000000	92.419	13.4663
11060.000000	92.419	19.2146
11200.000000	92.519	24.1996
11380.000000	92.793	30.4817
11500.000000	93.070	34.5547
11720.000000	93.803	41.6158
11800.000000	94.149	43.9974
12060.000000	95.606	50.6192
12200.000000	96.596	53.0931
12410.000000	98.257	54.4539
12500.000000	98.980	53.8627
12650.000000	100.102	50.9350
12800.000000	101.016	45.4482
13150.000000	101.833	26.0214
13200.000000	101.785	23.1334
13400.000000	101.242	13.0015
13600.000000	100.282	6.0329
13800.000000	99.100	2.2826
14000.000000	97.883	1.1805
14300.000000	96.377	3.0187
14500.000000	95.780	5.6466
14750.000000	95.597	9.4354
15000.000000	96.022	12.5402
15250.000000	96.893	13.1989
15500.000000	97.875	9.1685
15750.000000	98.515	-1.2875
16000.000000	98.394	-17.0570
16250.000000	97.318	-33.2131
16500.000000	95.415	-44.5818
16750.000000	93.030	-49.5809
17000.000000	90.541	-49.6401
17250.000000	88.242	-46.9276
17500.000000	86.298	-43.2200
17750.000000	84.703	-39.6184
18000.000000	83.282	-36.1500
18250.000000	81.802	-31.3120
18500.000000	80.202	-23.1356
18750.000000	78.783	-12.0197
19000.000000	77.960	-0.9821
19250.000000	77.705	7.4866
19500.000000	77.663	12.8616
19750.000000	77.563	15.7701
20000.000000	77.274	17.1777
