* Measurement data measured by REW V5.20.5
* Source: Mic in at front panel (Pink) (Realtek(R) Audio), MICROPHONE (Master Volume), L, volume: 0.250
* Format: 256k Log Swept Sine, 1 sweep at -12.0 dBFS with no timing reference
* Dated: Feb 20, 2022 5:40:19 PM
* REW Settings:
*  C-weighting compensation: Off
*  Target level: 75.0 dB
* Note: RSV TK2
* Measurement: Oxygen R Feb 20
* Smoothing: 1/12 octave
* Frequency Step: 1/48 octave
* Start Frequency: 20.000 Hz
*
* Freq(Hz)	SPL(dB)	Phase(degrees)
20.000000	89.389	-138.6933
20.299999	89.432	-139.4551
20.600000	89.472	-140.1987
20.900000	89.511	-140.9211
21.200001	89.551	-141.6217
21.400000	89.578	-142.0786
21.799999	89.634	-142.9761
22.000000	89.663	-143.4216
22.400000	89.721	-144.3171
22.700001	89.763	-144.9979
23.000000	89.802	-145.6863
23.299999	89.835	-146.3738
23.600000	89.863	-147.0481
24.000000	89.891	-147.9041
24.299999	89.908	-148.4996
24.700001	89.930	-149.2272
25.000000	89.949	-149.7336
25.400000	89.979	-150.3846
25.799999	90.015	-151.0459
26.200001	90.051	-151.7413
26.500000	90.075	-152.2809
26.900000	90.100	-153.0008
27.200001	90.115	-153.5198
27.600000	90.134	-154.1682
28.000000	90.157	-154.7802
28.500000	90.196	-155.5614
29.000000	90.235	-156.4330
29.500000	90.262	-157.3830
30.000000	90.267	-158.3075
30.400000	90.262	-158.9621
30.700001	90.258	-159.3961
31.100000	90.259	-159.9275
31.500000	90.267	-160.4485
32.000000	90.281	-161.1351
32.500000	90.289	-161.8586
33.000000	90.287	-162.5703
33.500000	90.279	-163.2310
34.000000	90.271	-163.8325
34.500000	90.268	-164.3946
35.000000	90.272	-164.9534
35.500000	90.283	-165.5552
36.000000	90.293	-166.2218
36.500000	90.293	-166.9204
37.000000	90.282	-167.5738
37.500000	90.270	-168.1302
38.200001	90.272	-168.7985
38.700001	90.288	-169.2930
39.500000	90.313	-170.1861
40.000000	90.320	-170.7462
40.599998	90.321	-171.3575
41.200001	90.323	-171.9085
41.799999	90.327	-172.4460
42.500000	90.329	-173.1057
43.099998	90.320	-173.6997
43.700001	90.301	-174.2841
44.400002	90.271	-174.9227
45.000000	90.249	-175.4602
45.500000	90.233	-175.9389
46.200001	90.207	-176.6724
46.799999	90.178	-177.3294
47.500000	90.138	-178.0765
48.200001	90.096	-178.7729
48.700001	90.066	-179.2321
49.400002	90.028	-179.8268
50.000000	90.000	179.6870
50.799999	89.965	179.0404
51.500000	89.930	178.4833
52.200001	89.894	177.9569
53.000000	89.859	177.3751
53.799999	89.837	176.7444
54.500000	89.825	176.1006
55.200001	89.815	175.3375
56.000000	89.786	174.3433
57.000000	89.700	173.2314
58.000000	89.599	172.6339
59.000000	89.534	172.3608
60.000000	89.485	172.1481
60.799999	89.442	172.0200
61.500000	89.404	171.9081
62.200001	89.365	171.7462
63.000000	89.317	171.4383
64.000000	89.239	170.8274
65.000000	89.131	170.1544
66.000000	89.024	169.6089
67.000000	88.944	169.1283
68.000000	88.880	168.7400
69.000000	88.837	168.4872
70.000000	88.810	168.2456
71.000000	88.773	167.9402
72.000000	88.719	167.5952
73.000000	88.656	167.1932
74.000000	88.590	166.6914
75.000000	88.524	166.1377
76.199997	88.454	165.5983
77.500000	88.415	165.3658
78.800003	88.417	165.4389
80.000000	88.417	165.6429
81.199997	88.384	165.9117
82.500000	88.294	166.1134
83.800003	88.147	166.2036
85.000000	88.006	166.2006
86.199997	87.900	166.0423
87.500000	87.841	165.7402
88.500000	87.833	165.5114
90.000000	87.862	165.3218
91.199997	87.898	165.3008
92.500000	87.925	165.2968
93.800003	87.917	165.1862
95.000000	87.874	164.9284
96.199997	87.805	164.5461
97.500000	87.722	164.0546
98.800003	87.647	163.5058
100.000000	87.579	162.9541
101.500000	87.472	162.3082
103.000000	87.338	161.8661
104.400002	87.219	161.6455
106.000000	87.124	161.4807
107.500000	87.073	161.3958
109.000000	87.035	161.4774
110.599998	86.966	161.7533
112.000000	86.859	161.9813
113.800003	86.678	161.6681
115.000000	86.566	160.7589
117.199997	86.469	157.5109
118.000000	86.452	156.0874
120.599998	86.300	153.9977
122.000000	86.216	155.4520
124.099998	86.131	159.0479
125.000000	86.070	160.5203
126.500000	85.925	162.5244
128.000000	85.790	163.7771
131.500000	85.777	163.0093
132.000000	85.778	162.6028
134.000000	85.693	161.4547
136.000000	85.573	161.6986
138.000000	85.538	162.3678
140.000000	85.552	162.6575
143.000000	85.567	162.6078
145.000000	85.508	162.5134
147.500000	85.344	162.6469
150.000000	85.186	163.0685
152.500000	85.103	163.5082
155.000000	85.043	163.8100
157.500000	84.956	164.0865
160.000000	84.862	164.3850
162.500000	84.784	164.6869
165.000000	84.720	165.0117
167.500000	84.659	165.3589
170.000000	84.596	165.7094
172.500000	84.534	166.0509
175.000000	84.471	166.3702
177.500000	84.409	166.6388
180.000000	84.352	166.8333
182.500000	84.304	167.0082
185.000000	84.267	167.2911
187.500000	84.241	167.7476
190.000000	84.223	168.2839
192.500000	84.206	168.7821
195.000000	84.195	169.2413
197.500000	84.197	169.7028
200.000000	84.201	170.1490
203.000000	84.179	170.5981
206.000000	84.123	170.9856
209.000000	84.064	171.3836
212.000000	84.025	171.8062
214.000000	84.006	172.0978
218.000000	83.974	172.6719
220.000000	83.959	172.9408
224.000000	83.934	173.4417
227.000000	83.920	173.8029
230.000000	83.907	174.1641
233.000000	83.895	174.5229
236.000000	83.885	174.8762
240.000000	83.874	175.3423
243.000000	83.867	175.6894
247.000000	83.859	176.1466
250.000000	83.854	176.4846
254.000000	83.850	176.9254
258.000000	83.848	177.3481
262.000000	83.848	177.7525
265.000000	83.850	178.0460
269.000000	83.853	178.4261
272.000000	83.857	178.7064
276.000000	83.864	179.0760
280.000000	83.872	179.4352
285.000000	83.883	179.8644
290.000000	83.894	-179.7239
295.000000	83.905	-179.3228
300.000000	83.915	-178.9292
304.000000	83.923	-178.6198
307.000000	83.928	-178.3920
311.000000	83.935	-178.0944
315.000000	83.942	-177.8023
320.000000	83.951	-177.4407
325.000000	83.960	-177.0784
330.000000	83.970	-176.7129
335.000000	83.980	-176.3428
340.000000	83.991	-175.9720
345.000000	84.004	-175.6127
350.000000	84.021	-175.2741
355.000000	84.041	-174.9612
360.000000	84.061	-174.6750
365.000000	84.079	-174.4122
370.000000	84.095	-174.1666
375.000000	84.107	-173.9294
382.000000	84.120	-173.5984
387.000000	84.129	-173.3584
395.000000	84.144	-172.9666
400.000000	84.152	-172.7205
406.000000	84.163	-172.4255
412.000000	84.172	-172.1314
418.000000	84.182	-171.8381
425.000000	84.192	-171.4962
431.000000	84.202	-171.2035
437.000000	84.211	-170.9091
444.000000	84.221	-170.5604
450.000000	84.230	-170.2553
455.000000	84.238	-169.9956
462.000000	84.250	-169.6219
468.000000	84.262	-169.2946
475.000000	84.281	-168.9147
482.000000	84.303	-168.5530
487.000000	84.320	-168.3139
494.000000	84.343	-168.0072
500.000000	84.361	-167.7613
508.000000	84.380	-167.4401
515.000000	84.395	-167.1569
522.000000	84.409	-166.8715
530.000000	84.423	-166.5414
538.000000	84.436	-166.2023
545.000000	84.447	-165.8971
552.000000	84.459	-165.5852
560.000000	84.473	-165.2214
570.000000	84.491	-164.7591
580.000000	84.511	-164.2909
590.000000	84.532	-163.8195
600.000000	84.554	-163.3466
608.000000	84.571	-162.9665
615.000000	84.587	-162.6317
622.000000	84.603	-162.2938
630.000000	84.622	-161.9026
640.000000	84.647	-161.4070
650.000000	84.673	-160.9061
660.000000	84.701	-160.4012
670.000000	84.730	-159.8944
680.000000	84.761	-159.3882
690.000000	84.793	-158.8835
700.000000	84.825	-158.3797
710.000000	84.858	-157.8730
720.000000	84.891	-157.3595
730.000000	84.926	-156.8387
740.000000	84.962	-156.3121
750.000000	85.001	-155.7805
762.000000	85.049	-155.1365
775.000000	85.105	-154.4354
788.000000	85.165	-153.7363
800.000000	85.224	-153.0959
812.000000	85.285	-152.4608
825.000000	85.356	-151.7792
838.000000	85.431	-151.1054
850.000000	85.504	-150.4913
862.000000	85.579	-149.8872
875.000000	85.665	-149.2472
885.000000	85.734	-148.7670
900.000000	85.841	-148.0702
912.000000	85.931	-147.5378
925.000000	86.031	-146.9896
938.000000	86.135	-146.4722
950.000000	86.234	-146.0219
962.000000	86.336	-145.5993
975.000000	86.450	-145.1748
988.000000	86.565	-144.7862
1000.000000	86.672	-144.4595
1015.000000	86.807	-144.0942
1030.000000	86.942	-143.7760
1044.000000	87.067	-143.5199
1060.000000	87.209	-143.2725
1075.000000	87.339	-143.0815
1090.000000	87.467	-142.9274
1106.000000	87.601	-142.8011
1120.000000	87.715	-142.7196
1138.000000	87.858	-142.6494
1150.000000	87.950	-142.6216
1172.000000	88.113	-142.6034
1180.000000	88.170	-142.6052
1206.000000	88.352	-142.6333
1220.000000	88.446	-142.6597
1241.000000	88.584	-142.7101
1250.000000	88.641	-142.7343
1265.000000	88.734	-142.7764
1280.000000	88.824	-142.8195
1315.000000	89.025	-142.9150
1320.000000	89.053	-142.9274
1340.000000	89.166	-142.9733
1360.000000	89.282	-143.0126
1380.000000	89.403	-143.0445
1400.000000	89.527	-143.0682
1430.000000	89.714	-143.0872
1450.000000	89.836	-143.0892
1475.000000	89.986	-143.0818
1500.000000	90.127	-143.0639
1525.000000	90.253	-143.0356
1550.000000	90.359	-142.9972
1575.000000	90.453	-142.9497
1600.000000	90.541	-142.8956
1625.000000	90.629	-142.8373
1650.000000	90.718	-142.7766
1675.000000	90.810	-142.7159
1700.000000	90.905	-142.6572
1725.000000	91.000	-142.6003
1750.000000	91.093	-142.5443
1775.000000	91.183	-142.4875
1800.000000	91.274	-142.4271
1825.000000	91.366	-142.3577
1850.000000	91.462	-142.2734
1875.000000	91.565	-142.1701
1900.000000	91.683	-142.0506
1925.000000	91.822	-141.9306
1950.000000	91.985	-141.8410
1975.000000	92.168	-141.8200
2000.000000	92.359	-141.8962
2030.000000	92.589	-142.1200
2060.000000	92.809	-142.4498
2090.000000	93.015	-142.8288
2120.000000	93.209	-143.2118
2140.000000	93.335	-143.4564
2180.000000	93.582	-143.9116
2200.000000	93.707	-144.1292
2240.000000	93.967	-144.5925
2270.000000	94.173	-145.0202
2300.000000	94.383	-145.5641
2330.000000	94.591	-146.2386
2360.000000	94.789	-147.0288
2400.000000	95.033	-148.2106
2430.000000	95.202	-149.1577
2470.000000	95.411	-150.4713
2500.000000	95.557	-151.4863
2540.000000	95.739	-152.8770
2580.000000	95.910	-154.3137
2620.000000	96.068	-155.8023
2650.000000	96.179	-156.9561
2690.000000	96.315	-158.5478
2720.000000	96.409	-159.7830
2760.000000	96.520	-161.4859
2800.000000	96.615	-163.2521
2850.000000	96.708	-165.5450
2900.000000	96.768	-167.9226
2950.000000	96.790	-170.3658
3000.000000	96.767	-172.8365
3040.000000	96.714	-174.7853
3070.000000	96.652	-176.1970
3110.000000	96.544	-177.9685
3150.000000	96.409	-179.5717
3200.000000	96.214	178.7000
3250.000000	96.000	177.2834
3300.000000	95.776	176.1703
3350.000000	95.547	175.3779
3400.000000	95.325	174.9360
3450.000000	95.130	174.8252
3500.000000	94.979	174.9428
3550.000000	94.873	175.1494
3600.000000	94.804	175.3395
3650.000000	94.757	175.4705
3700.000000	94.724	175.5441
3750.000000	94.697	175.5772
3820.000000	94.663	175.5828
3870.000000	94.639	175.5716
3950.000000	94.598	175.5481
4000.000000	94.573	175.5376
4060.000000	94.548	175.5355
4120.000000	94.527	175.5500
4180.000000	94.514	175.5818
4250.000000	94.511	175.6295
4310.000000	94.519	175.6606
4370.000000	94.536	175.6626
4440.000000	94.567	175.6081
4500.000000	94.605	175.5022
4550.000000	94.643	175.3690
4620.000000	94.709	175.1076
4680.000000	94.778	174.8002
4750.000000	94.873	174.3121
4820.000000	94.981	173.6423
4870.000000	95.062	173.0309
4940.000000	95.176	171.9712
5000.000000	95.266	170.8708
5080.000000	95.363	169.1441
5150.000000	95.417	167.4235
5220.000000	95.436	165.5549
5300.000000	95.407	163.3089
5380.000000	95.322	161.0305
5450.000000	95.201	159.0782
5520.000000	95.040	157.2170
5600.000000	94.815	155.2483
5700.000000	94.490	153.0672
5800.000000	94.136	151.1946
5900.000000	93.774	149.5682
6000.000000	93.416	148.0628
6080.000000	93.130	146.8402
6150.000000	92.871	145.7180
6220.000000	92.594	144.5671
6300.000000	92.245	143.2863
6400.000000	91.753	141.8734
6500.000000	91.197	140.8566
6600.000000	90.589	140.4443
6700.000000	89.958	140.7383
6800.000000	89.336	141.7183
6900.000000	88.745	143.2999
7000.000000	88.201	145.3666
7100.000000	87.717	147.7908
7200.000000	87.300	150.4560
7300.000000	86.957	153.2648
7400.000000	86.689	156.1345
7500.000000	86.498	158.9880
7620.000000	86.370	162.2781
7750.000000	86.350	165.5277
7880.000000	86.439	168.3082
8000.000000	86.599	170.3535
8120.000000	86.816	171.7984
8250.000000	87.087	172.5734
8380.000000	87.358	172.4391
8500.000000	87.571	171.4958
8620.000000	87.716	169.8362
8750.000000	87.768	167.3994
8850.000000	87.720	165.2291
9000.000000	87.500	161.8105
9120.000000	87.200	159.1971
9250.000000	86.771	156.7151
9380.000000	86.259	154.7259
9500.000000	85.736	153.3610
9620.000000	85.180	152.4542
9750.000000	84.553	152.0210
9880.000000	83.922	152.1516
10000.000000	83.356	152.6794
10150.000000	82.682	153.6907
10300.000000	82.043	154.8891
10440.000000	81.464	156.0424
10600.000000	80.793	157.3550
10750.000000	80.116	158.7846
10900.000000	79.373	160.8511
11060.000000	78.553	164.1646
11200.000000	77.888	167.9624
11380.000000	77.206	173.4858
11500.000000	76.868	177.1907
11720.000000	76.422	-176.4615
11800.000000	76.293	-174.3199
12060.000000	75.943	-167.9056
12200.000000	75.778	-164.7539
12410.000000	75.541	-160.2592
12500.000000	75.441	-158.3550
12650.000000	75.281	-155.1304
12800.000000	75.139	-151.7758
13150.000000	74.961	-143.2758
13200.000000	74.965	-142.0005
13400.000000	75.088	-136.9041
13600.000000	75.419	-132.1695
13800.000000	75.972	-128.4565
14000.000000	76.690	-126.6112
14300.000000	77.739	-129.0893
14500.000000	78.113	-134.4331
14750.000000	77.921	-143.0624
15000.000000	76.945	-149.7976
15250.000000	75.422	-151.6919
15500.000000	73.766	-148.7475
15750.000000	72.399	-142.6747
16000.000000	71.566	-135.4033
16250.000000	71.263	-128.3996
16500.000000	71.346	-122.4865
16750.000000	71.705	-118.0819
17000.000000	72.288	-115.7168
17250.000000	73.005	-116.2542
17500.000000	73.651	-120.6118
17750.000000	73.933	-128.8059
18000.000000	73.592	-138.7622
18250.000000	72.511	-146.4896
18500.000000	70.785	-148.3802
18750.000000	68.774	-144.2378
19000.000000	67.060	-138.1271
19250.000000	65.882	-134.1332
19500.000000	64.920	-132.3067
19750.000000	64.009	-131.0829
