* Measurement data measured by REW V5.20.5
* Source: Mic in at front panel (Pink) (Realtek(R) Audio), MICROPHONE (Master Volume), L, volume: 0.250
* Format: 256k Log Swept Sine, 1 sweep at -12.0 dBFS with no timing reference
* Dated: Feb 19, 2022 12:25:24 PM
* REW Settings:
*  C-weighting compensation: Off
*  Target level: 75.0 dB
* Note: Softears Volume R
* Measurement: Softears Volume R Feb 19
* Smoothing: 1/12 octave
* Frequency Step: 1/48 octave
* Start Frequency: 20.000 Hz
*
* Freq(Hz)	SPL(dB)	Phase(degrees)
20.000000	98.151	-158.6503
20.299999	98.152	-159.1825
20.600000	98.153	-159.7020
20.900000	98.155	-160.2129
21.200001	98.158	-160.7188
21.400000	98.161	-161.0541
21.799999	98.165	-161.7189
22.000000	98.168	-162.0471
22.400000	98.171	-162.6923
22.700001	98.172	-163.1646
23.000000	98.173	-163.6273
23.299999	98.173	-164.0821
23.600000	98.172	-164.5302
24.000000	98.169	-165.1167
24.299999	98.164	-165.5452
24.700001	98.156	-166.0959
25.000000	98.149	-166.4909
25.400000	98.140	-166.9955
25.799999	98.132	-167.4833
26.200001	98.125	-167.9641
26.500000	98.119	-168.3222
26.900000	98.110	-168.7932
27.200001	98.102	-169.1370
27.600000	98.091	-169.5779
28.000000	98.081	-169.9992
28.500000	98.070	-170.5095
29.000000	98.062	-171.0177
29.500000	98.054	-171.5307
30.000000	98.047	-172.0465
30.400000	98.040	-172.4590
30.700001	98.035	-172.7676
31.100000	98.028	-173.1776
31.500000	98.020	-173.5836
32.000000	98.007	-174.0803
32.500000	97.994	-174.5608
33.000000	97.980	-175.0254
33.500000	97.967	-175.4775
34.000000	97.953	-175.9196
34.500000	97.940	-176.3524
35.000000	97.926	-176.7772
35.500000	97.912	-177.1969
36.000000	97.898	-177.6134
36.500000	97.882	-178.0253
37.000000	97.865	-178.4293
37.500000	97.847	-178.8231
38.200001	97.821	-179.3582
38.700001	97.803	-179.7302
39.500000	97.773	179.6904
40.000000	97.755	179.3366
40.599998	97.734	178.9179
41.200001	97.712	178.5052
41.799999	97.690	178.1008
42.500000	97.665	177.6420
43.099998	97.642	177.2595
43.700001	97.619	176.8870
44.400002	97.591	176.4662
45.000000	97.566	176.1185
45.500000	97.546	175.8379
46.200001	97.516	175.4573
46.799999	97.490	175.1392
47.500000	97.459	174.7754
48.200001	97.427	174.4244
48.700001	97.405	174.1839
49.400002	97.375	173.8550
50.000000	97.351	173.5689
50.799999	97.320	173.1730
51.500000	97.292	172.8206
52.200001	97.262	172.4758
53.000000	97.229	172.1009
53.799999	97.198	171.7467
54.500000	97.173	171.4474
55.200001	97.151	171.1520
56.000000	97.126	170.8146
57.000000	97.092	170.3922
58.000000	97.055	169.9836
59.000000	97.014	169.5983
60.000000	96.971	169.2179
60.799999	96.935	168.9067
61.500000	96.902	168.6304
62.200001	96.867	168.3503
63.000000	96.827	168.0164
64.000000	96.771	167.5737
65.000000	96.707	167.1673
66.000000	96.647	166.8481
67.000000	96.600	166.5559
68.000000	96.560	166.2399
69.000000	96.520	165.9165
70.000000	96.476	165.6293
71.000000	96.432	165.4117
72.000000	96.391	165.2467
73.000000	96.353	165.0958
74.000000	96.316	164.9385
75.000000	96.276	164.7638
76.199997	96.225	164.5210
77.500000	96.166	164.2235
78.800003	96.110	163.8863
80.000000	96.060	163.5543
81.199997	96.012	163.2619
82.500000	95.971	163.0211
83.800003	95.940	162.7892
85.000000	95.908	162.5583
86.199997	95.866	162.3359
87.500000	95.815	162.0977
88.500000	95.772	161.8967
90.000000	95.706	161.5640
91.199997	95.653	161.2988
92.500000	95.597	161.0394
93.800003	95.544	160.8078
95.000000	95.495	160.6063
96.199997	95.443	160.4104
97.500000	95.385	160.2043
98.800003	95.328	160.0097
100.000000	95.276	159.8557
101.500000	95.212	159.7186
103.000000	95.149	159.6275
104.400002	95.088	159.5376
106.000000	95.018	159.3851
107.500000	94.960	159.1971
109.000000	94.910	159.0172
110.599998	94.856	158.8962
112.000000	94.794	158.8348
113.800003	94.677	158.6346
115.000000	94.574	158.2775
117.199997	94.342	157.1063
118.000000	94.251	156.6652
120.599998	94.050	156.2843
122.000000	94.063	156.6687
124.099998	94.147	157.2770
125.000000	94.170	157.5002
126.500000	94.175	157.8123
128.000000	94.145	158.0089
131.500000	93.995	158.0893
132.000000	93.967	158.1001
134.000000	93.847	158.2528
136.000000	93.734	158.6078
138.000000	93.661	158.9859
140.000000	93.625	159.0741
143.000000	93.547	158.4839
145.000000	93.450	157.9644
147.500000	93.325	157.6767
150.000000	93.255	157.8168
152.500000	93.226	158.0831
155.000000	93.201	158.2423
157.500000	93.157	158.2919
160.000000	93.093	158.4036
162.500000	93.022	158.5659
165.000000	92.946	158.6933
167.500000	92.866	158.8044
170.000000	92.785	158.9608
172.500000	92.705	159.1448
175.000000	92.632	159.2706
177.500000	92.569	159.3362
180.000000	92.519	159.4661
182.500000	92.477	159.7238
185.000000	92.433	160.0036
187.500000	92.382	160.1579
190.000000	92.332	160.1269
192.500000	92.284	160.0021
195.000000	92.227	159.9866
197.500000	92.163	160.1992
200.000000	92.102	160.5499
203.000000	92.036	160.9679
206.000000	91.972	161.3174
209.000000	91.907	161.5997
212.000000	91.841	161.8427
214.000000	91.798	162.0058
218.000000	91.713	162.3880
220.000000	91.670	162.6131
224.000000	91.591	163.0826
227.000000	91.540	163.4095
230.000000	91.494	163.6987
233.000000	91.450	163.9608
236.000000	91.404	164.2109
240.000000	91.344	164.5343
243.000000	91.298	164.7783
247.000000	91.234	165.1284
250.000000	91.182	165.4272
254.000000	91.115	165.8885
258.000000	91.060	166.3733
262.000000	91.019	166.7822
265.000000	90.991	167.0375
269.000000	90.949	167.3823
272.000000	90.914	167.6753
276.000000	90.871	168.1033
280.000000	90.835	168.5417
285.000000	90.805	169.0698
290.000000	90.784	169.5186
295.000000	90.755	169.8745
300.000000	90.714	170.2243
304.000000	90.677	170.5375
307.000000	90.649	170.7863
311.000000	90.614	171.1211
315.000000	90.579	171.4533
320.000000	90.532	171.8840
325.000000	90.488	172.3560
330.000000	90.450	172.8525
335.000000	90.417	173.3383
340.000000	90.387	173.7938
345.000000	90.356	174.2283
350.000000	90.323	174.6657
355.000000	90.291	175.1148
360.000000	90.260	175.5699
365.000000	90.230	176.0249
370.000000	90.203	176.4788
375.000000	90.176	176.9344
382.000000	90.142	177.5793
387.000000	90.120	178.0448
395.000000	90.092	178.7937
400.000000	90.079	179.2557
406.000000	90.067	179.7850
412.000000	90.054	-179.7206
418.000000	90.040	-179.2412
425.000000	90.021	-178.6640
431.000000	90.009	-178.1514
437.000000	90.002	-177.6446
444.000000	89.998	-177.0776
450.000000	90.000	-176.6288
455.000000	90.001	-176.2986
462.000000	89.996	-175.8896
468.000000	89.982	-175.5355
475.000000	89.962	-175.0791
482.000000	89.942	-174.5966
487.000000	89.927	-174.2496
494.000000	89.904	-173.7422
500.000000	89.886	-173.2714
508.000000	89.870	-172.6254
515.000000	89.860	-172.0800
522.000000	89.851	-171.5545
530.000000	89.838	-170.9551
538.000000	89.825	-170.3398
545.000000	89.813	-169.7823
552.000000	89.804	-169.2003
560.000000	89.799	-168.5160
570.000000	89.798	-167.6495
580.000000	89.808	-166.7695
590.000000	89.831	-165.9178
600.000000	89.864	-165.1376
608.000000	89.892	-164.5787
615.000000	89.912	-164.1305
622.000000	89.927	-163.6932
630.000000	89.938	-163.1703
640.000000	89.952	-162.4705
650.000000	89.971	-161.7346
660.000000	90.001	-160.9868
670.000000	90.042	-160.2986
680.000000	90.080	-159.6937
690.000000	90.110	-159.1213
700.000000	90.133	-158.5314
710.000000	90.156	-157.9072
720.000000	90.181	-157.2679
730.000000	90.208	-156.6331
740.000000	90.236	-156.0066
750.000000	90.263	-155.3808
762.000000	90.295	-154.6144
775.000000	90.331	-153.7561
788.000000	90.370	-152.8738
800.000000	90.412	-152.0331
812.000000	90.464	-151.1740
825.000000	90.535	-150.2852
838.000000	90.612	-149.4986
850.000000	90.677	-148.8318
862.000000	90.737	-148.1644
875.000000	90.801	-147.4153
885.000000	90.854	-146.8286
900.000000	90.940	-145.9684
912.000000	91.013	-145.3027
925.000000	91.097	-144.6052
938.000000	91.186	-143.9471
950.000000	91.270	-143.3843
962.000000	91.353	-142.8557
975.000000	91.443	-142.3027
988.000000	91.532	-141.7590
1000.000000	91.615	-141.2579
1015.000000	91.722	-140.6184
1030.000000	91.841	-139.9868
1044.000000	91.964	-139.4670
1060.000000	92.107	-139.0108
1075.000000	92.232	-138.6829
1090.000000	92.349	-138.3947
1106.000000	92.468	-138.1120
1120.000000	92.569	-137.8878
1138.000000	92.691	-137.6284
1150.000000	92.769	-137.4667
1172.000000	92.906	-137.1685
1180.000000	92.956	-137.0549
1206.000000	93.128	-136.7258
1220.000000	93.221	-136.6269
1241.000000	93.348	-136.5652
1250.000000	93.396	-136.5468
1265.000000	93.469	-136.5043
1280.000000	93.535	-136.4389
1315.000000	93.678	-136.1969
1320.000000	93.697	-136.1563
1340.000000	93.776	-135.9848
1360.000000	93.853	-135.7809
1380.000000	93.934	-135.5118
1400.000000	94.024	-135.1599
1430.000000	94.187	-134.5985
1450.000000	94.305	-134.3129
1475.000000	94.441	-134.0462
1500.000000	94.553	-133.7959
1525.000000	94.638	-133.4814
1550.000000	94.701	-133.0576
1575.000000	94.762	-132.5450
1600.000000	94.834	-132.0511
1625.000000	94.908	-131.6412
1650.000000	94.977	-131.2755
1675.000000	95.041	-130.9052
1700.000000	95.104	-130.5165
1725.000000	95.164	-130.1141
1750.000000	95.218	-129.6782
1775.000000	95.271	-129.1703
1800.000000	95.333	-128.5996
1825.000000	95.409	-128.0408
1850.000000	95.493	-127.5375
1875.000000	95.581	-127.0751
1900.000000	95.674	-126.6196
1925.000000	95.779	-126.1399
1950.000000	95.904	-125.6307
1975.000000	96.050	-125.1366
2000.000000	96.209	-124.7105
2030.000000	96.401	-124.2939
2060.000000	96.588	-123.9357
2090.000000	96.770	-123.6021
2120.000000	96.944	-123.2740
2140.000000	97.056	-123.0380
2180.000000	97.281	-122.4830
2200.000000	97.398	-122.1858
2240.000000	97.644	-121.6318
2270.000000	97.832	-121.2536
2300.000000	98.023	-120.8703
2330.000000	98.227	-120.4594
2360.000000	98.450	-120.0616
2400.000000	98.775	-119.6865
2430.000000	99.028	-119.5755
2470.000000	99.361	-119.6457
2500.000000	99.601	-119.8203
2540.000000	99.905	-120.1054
2580.000000	100.212	-120.3672
2620.000000	100.537	-120.6635
2650.000000	100.795	-120.9724
2690.000000	101.154	-121.5570
2720.000000	101.431	-122.1583
2760.000000	101.804	-123.2496
2800.000000	102.161	-124.7215
2850.000000	102.555	-127.0230
2900.000000	102.875	-129.6535
2950.000000	103.124	-132.4055
3000.000000	103.316	-135.1857
3040.000000	103.430	-137.4224
3070.000000	103.492	-139.0790
3110.000000	103.547	-141.2076
3150.000000	103.579	-143.2261
3200.000000	103.596	-145.6292
3250.000000	103.591	-147.9421
3300.000000	103.558	-150.1711
3350.000000	103.499	-152.2741
3400.000000	103.420	-154.2408
3450.000000	103.322	-156.0678
3500.000000	103.206	-157.6970
3550.000000	103.083	-159.0981
3600.000000	102.963	-160.3155
3650.000000	102.846	-161.4061
3700.000000	102.729	-162.3826
3750.000000	102.611	-163.2226
3820.000000	102.453	-164.1877
3870.000000	102.345	-164.7430
3950.000000	102.198	-165.4214
4000.000000	102.134	-165.8121
4060.000000	102.081	-166.3795
4120.000000	102.039	-167.1031
4180.000000	101.997	-167.9846
4250.000000	101.930	-169.1981
4310.000000	101.848	-170.3284
4370.000000	101.745	-171.5029
4440.000000	101.593	-172.9471
4500.000000	101.429	-174.2258
4550.000000	101.262	-175.2625
4620.000000	100.979	-176.5643
4680.000000	100.695	-177.4180
4750.000000	100.331	-177.9748
4820.000000	99.964	-178.0427
4870.000000	99.712	-177.8266
4940.000000	99.385	-177.2065
5000.000000	99.138	-176.4342
5080.000000	98.859	-175.1265
5150.000000	98.675	-173.7811
5220.000000	98.556	-172.3732
5300.000000	98.499	-170.8854
5380.000000	98.506	-169.7074
5450.000000	98.538	-169.0140
5520.000000	98.575	-168.6283
5600.000000	98.609	-168.5263
5700.000000	98.620	-168.8541
5800.000000	98.571	-169.5637
5900.000000	98.437	-170.4053
6000.000000	98.224	-171.0607
6080.000000	98.013	-171.3211
6150.000000	97.812	-171.3292
6220.000000	97.601	-171.1296
6300.000000	97.356	-170.6300
6400.000000	97.055	-169.5620
6500.000000	96.787	-168.0214
6600.000000	96.574	-166.1073
6700.000000	96.427	-163.9238
6800.000000	96.354	-161.5342
6900.000000	96.365	-159.0216
7000.000000	96.467	-156.5156
7100.000000	96.662	-154.1431
7200.000000	96.956	-152.0043
7300.000000	97.359	-150.2368
7400.000000	97.870	-149.0590
7500.000000	98.468	-148.7259
7620.000000	99.256	-149.7845
7750.000000	100.104	-153.2042
7880.000000	100.790	-159.4247
8000.000000	101.113	-167.4358
8120.000000	101.022	-176.5053
8250.000000	100.423	174.3941
8380.000000	99.368	167.9757
8500.000000	98.122	165.5344
8620.000000	96.822	166.6517
8750.000000	95.705	170.8101
8850.000000	95.258	174.4168
9000.000000	95.097	177.5504
9120.000000	94.994	177.9081
9250.000000	94.702	177.7661
9380.000000	94.290	178.2818
9500.000000	93.919	179.4971
9620.000000	93.629	-178.8551
9750.000000	93.434	-176.9230
9880.000000	93.364	-175.1264
10000.000000	93.395	-173.8001
10150.000000	93.528	-172.8373
10300.000000	93.710	-172.8783
10440.000000	93.857	-173.9076
10600.000000	93.926	-176.0594
10750.000000	93.852	-178.6311
10900.000000	93.626	178.7272
11060.000000	93.232	176.3456
11200.000000	92.793	174.9177
11380.000000	92.165	174.1424
11500.000000	91.747	174.2682
11720.000000	91.064	175.5289
11800.000000	90.858	176.2151
12060.000000	90.387	178.7265
12200.000000	90.260	179.9442
12410.000000	90.208	-178.8789
12500.000000	90.221	-178.7262
12650.000000	90.259	-179.0421
12800.000000	90.277	179.9206
13150.000000	90.031	175.6543
13200.000000	89.953	174.9890
13400.000000	89.540	172.5934
13600.000000	88.986	171.0428
13800.000000	88.352	170.7935
14000.000000	87.751	172.0525
14300.000000	87.288	176.1563
14500.000000	87.514	179.0593
14750.000000	88.385	-179.7985
15000.000000	89.421	175.8333
15250.000000	90.027	165.6296
15500.000000	89.949	152.7679
15750.000000	89.299	140.6489
16000.000000	88.286	130.4502
16250.000000	87.035	122.2130
16500.000000	85.605	116.0517
16750.000000	84.077	112.0340
17000.000000	82.574	109.7802
17250.000000	81.231	108.4418
17500.000000	80.130	106.9586
17750.000000	79.245	104.3896
18000.000000	78.442	100.2560
18250.000000	77.546	94.8332
18500.000000	76.412	89.1995
18750.000000	74.967	84.8943
19000.000000	73.218	83.3533
19250.000000	71.257	85.3740
19500.000000	69.300	90.5268
19750.000000	67.724	96.7279
