* Measurement data measured by REW V5.20
* Source: Mic in at front panel (Pink) (Realtek(R) Audio), no input selected, L, volume: 0.250
* Format: 256k Log Swept Sine, 1 sweep at -12.0 dBFS with no timing reference
* Dated: Sep 4, 2021 2:41:06 PM
* REW Settings:
*  C-weighting compensation: Off
*  Target level: 75.0 dB
* Note: Sony MH755
* Measurement: Sep 4
* Smoothing: 1/12 octave
* Frequency Step: 1/48 octave
* Start Frequency: 20.000 Hz
*
* Freq(Hz)	SPL(dB)	Phase(degrees)
20.000000	98.5	-176.1332
20.299999	98.4	-176.7533
20.600000	98.4	-177.3632
20.900000	98.4	-177.9629
21.200001	98.4	-178.5521
21.400000	98.4	-178.9390
21.799999	98.3	-179.6985
22.000000	98.3	179.9290
22.400000	98.3	179.1992
22.700001	98.3	178.6653
23.000000	98.2	178.1430
23.299999	98.2	177.6309
23.600000	98.2	177.1273
24.000000	98.2	176.4666
24.299999	98.1	175.9780
24.700001	98.1	175.3367
25.000000	98.1	174.8658
25.400000	98.1	174.2549
25.799999	98.0	173.6646
26.200001	98.0	173.0912
26.500000	98.0	172.6674
26.900000	97.9	172.1047
27.200001	97.9	171.6815
27.600000	97.9	171.1151
28.000000	97.8	170.5495
28.500000	97.8	169.8522
29.000000	97.7	169.1758
29.500000	97.7	168.5297
30.000000	97.6	167.9224
30.400000	97.6	167.4651
30.700001	97.5	167.1349
31.100000	97.5	166.7005
31.500000	97.5	166.2596
32.000000	97.4	165.6855
32.500000	97.4	165.0903
33.000000	97.4	164.4983
33.500000	97.3	163.9329
34.000000	97.3	163.4020
34.500000	97.2	162.8978
35.000000	97.2	162.4076
35.500000	97.1	161.9223
36.000000	97.1	161.4392
36.500000	97.0	160.9608
37.000000	97.0	160.4922
37.500000	96.9	160.0383
38.200001	96.8	159.4293
38.700001	96.8	159.0092
39.500000	96.7	158.3547
40.000000	96.6	157.9565
40.599998	96.6	157.4908
41.200001	96.5	157.0376
41.799999	96.5	156.5963
42.500000	96.4	156.0974
43.099998	96.3	155.6843
43.700001	96.3	155.2842
44.400002	96.2	154.8336
45.000000	96.1	154.4602
45.500000	96.1	154.1561
46.200001	96.0	153.7387
46.799999	96.0	153.3891
47.500000	95.9	152.9935
48.200001	95.8	152.6112
48.700001	95.8	152.3434
49.400002	95.7	151.9702
50.000000	95.6	151.6503
50.799999	95.6	151.2307
51.500000	95.5	150.8828
52.200001	95.4	150.5576
53.000000	95.4	150.2059
53.799999	95.3	149.8716
54.500000	95.2	149.5944
55.200001	95.2	149.3190
56.000000	95.1	148.9838
57.000000	95.0	148.5393
58.000000	95.0	148.1059
59.000000	94.9	147.6935
60.000000	94.8	147.2996
60.799999	94.7	146.9983
61.500000	94.6	146.7493
62.200001	94.6	146.5185
63.000000	94.5	146.2708
64.000000	94.4	145.9635
65.000000	94.3	145.6534
66.000000	94.3	145.3551
67.000000	94.2	145.0781
68.000000	94.1	144.8128
69.000000	94.0	144.5456
70.000000	93.9	144.2801
71.000000	93.9	144.0220
72.000000	93.8	143.7671
73.000000	93.7	143.5172
74.000000	93.6	143.2892
75.000000	93.5	143.0908
76.199997	93.4	142.8757
77.500000	93.3	142.6541
78.800003	93.3	142.4286
80.000000	93.2	142.1978
81.199997	93.1	141.9378
82.500000	93.0	141.6308
83.800003	92.9	141.3163
85.000000	92.8	141.0459
86.199997	92.7	140.8169
87.500000	92.6	140.6165
88.500000	92.5	140.4880
90.000000	92.4	140.3264
91.199997	92.3	140.2151
92.500000	92.2	140.0988
93.800003	92.1	139.9833
95.000000	92.1	139.8877
96.199997	92.0	139.8060
97.500000	91.9	139.7239
98.800003	91.8	139.6412
100.000000	91.7	139.5713
101.500000	91.6	139.5114
103.000000	91.6	139.4756
104.400002	91.5	139.4421
106.000000	91.4	139.3958
107.500000	91.3	139.3530
109.000000	91.2	139.3121
110.599998	91.1	139.2434
112.000000	91.1	139.1456
113.800003	91.0	138.9956
115.000000	90.9	138.9133
117.199997	90.8	138.8610
118.000000	90.7	138.8705
120.599998	90.6	138.9246
122.000000	90.5	138.9677
124.099998	90.4	139.0532
125.000000	90.3	139.0838
126.500000	90.2	139.1177
128.000000	90.2	139.1398
131.500000	90.0	139.1963
132.000000	90.0	139.2024
134.000000	89.9	139.2142
136.000000	89.8	139.2209
138.000000	89.7	139.2558
140.000000	89.6	139.3214
143.000000	89.5	139.4198
145.000000	89.4	139.4743
147.500000	89.3	139.5506
150.000000	89.2	139.6541
152.500000	89.0	139.7968
155.000000	88.9	139.9838
157.500000	88.8	140.2021
160.000000	88.7	140.4218
162.500000	88.6	140.6058
165.000000	88.5	140.7353
167.500000	88.4	140.8388
170.000000	88.3	140.9634
172.500000	88.2	141.1323
175.000000	88.1	141.3334
177.500000	88.0	141.5456
180.000000	87.9	141.7583
182.500000	87.8	141.9501
185.000000	87.8	142.1099
187.500000	87.7	142.2753
190.000000	87.6	142.4861
192.500000	87.5	142.7349
195.000000	87.4	142.9898
197.500000	87.4	143.2360
200.000000	87.3	143.4748
203.000000	87.2	143.7357
206.000000	87.1	143.9556
209.000000	87.0	144.1620
212.000000	86.9	144.4008
214.000000	86.9	144.5964
218.000000	86.7	145.0694
220.000000	86.6	145.3183
224.000000	86.5	145.8053
227.000000	86.4	146.1821
230.000000	86.3	146.5771
233.000000	86.2	147.0036
236.000000	86.1	147.4906
240.000000	86.0	148.2668
243.000000	85.9	148.9562
247.000000	85.9	150.0193
250.000000	85.8	150.8862
254.000000	85.8	152.0032
258.000000	85.9	152.8681
262.000000	85.9	153.3223
265.000000	86.0	153.4159
269.000000	86.0	153.3606
272.000000	86.0	153.3001
276.000000	86.0	153.2888
280.000000	85.9	153.3461
285.000000	85.9	153.4478
290.000000	85.8	153.5283
295.000000	85.8	153.5934
300.000000	85.7	153.6946
304.000000	85.6	153.8025
307.000000	85.6	153.8926
311.000000	85.5	154.0245
315.000000	85.4	154.1788
320.000000	85.3	154.4304
325.000000	85.2	154.7640
330.000000	85.2	155.1530
335.000000	85.1	155.5587
340.000000	85.0	155.9586
345.000000	84.9	156.3539
350.000000	84.8	156.7576
355.000000	84.8	157.1746
360.000000	84.7	157.6010
365.000000	84.6	158.0331
370.000000	84.6	158.4709
375.000000	84.5	158.9149
382.000000	84.4	159.5436
387.000000	84.4	159.9947
395.000000	84.3	160.7185
400.000000	84.2	161.1724
406.000000	84.2	161.7101
412.000000	84.1	162.2365
418.000000	84.0	162.7687
425.000000	84.0	163.4215
431.000000	83.9	164.0003
437.000000	83.9	164.5692
444.000000	83.8	165.2019
450.000000	83.8	165.7053
455.000000	83.8	166.0818
462.000000	83.7	166.5541
468.000000	83.7	166.9597
475.000000	83.6	167.4756
482.000000	83.6	168.0204
487.000000	83.6	168.4128
494.000000	83.5	168.9803
500.000000	83.5	169.4960
508.000000	83.4	170.1936
515.000000	83.4	170.7831
522.000000	83.3	171.3621
530.000000	83.3	172.0410
538.000000	83.2	172.7393
545.000000	83.2	173.3506
552.000000	83.2	173.9592
560.000000	83.1	174.6420
570.000000	83.1	175.4675
580.000000	83.0	176.2898
590.000000	83.0	177.1306
600.000000	83.0	178.0001
608.000000	82.9	178.7011
615.000000	82.9	179.3078
622.000000	82.9	179.9190
630.000000	82.9	-179.3564
640.000000	82.9	-178.4179
650.000000	82.9	-177.4731
660.000000	82.9	-176.5522
670.000000	82.9	-175.7141
680.000000	82.9	-174.9602
690.000000	82.9	-174.2289
700.000000	82.9	-173.4750
710.000000	82.9	-172.6908
720.000000	82.9	-171.8953
730.000000	82.9	-171.0991
740.000000	82.9	-170.2991
750.000000	82.9	-169.4918
762.000000	82.9	-168.5122
775.000000	82.9	-167.4445
788.000000	82.9	-166.3768
800.000000	82.9	-165.3801
812.000000	83.0	-164.3757
825.000000	83.0	-163.3421
838.000000	83.1	-162.4274
850.000000	83.2	-161.6603
862.000000	83.2	-160.9108
875.000000	83.3	-160.0896
885.000000	83.3	-159.4509
900.000000	83.4	-158.5005
912.000000	83.4	-157.7477
925.000000	83.5	-156.9458
938.000000	83.5	-156.1783
950.000000	83.6	-155.5116
962.000000	83.7	-154.8770
975.000000	83.7	-154.2069
988.000000	83.8	-153.5382
1000.000000	83.9	-152.9062
1015.000000	84.0	-152.0771
1030.000000	84.1	-151.2405
1044.000000	84.2	-150.5350
1060.000000	84.3	-149.8896
1075.000000	84.4	-149.4122
1090.000000	84.5	-148.9995
1106.000000	84.6	-148.6008
1120.000000	84.7	-148.2755
1138.000000	84.8	-147.8706
1150.000000	84.9	-147.5970
1172.000000	85.0	-147.0582
1180.000000	85.1	-146.8459
1206.000000	85.2	-146.1651
1220.000000	85.3	-145.8692
1241.000000	85.4	-145.5273
1250.000000	85.5	-145.4001
1265.000000	85.6	-145.1960
1280.000000	85.7	-144.9946
1315.000000	85.8	-144.5184
1320.000000	85.8	-144.4518
1340.000000	85.9	-144.1917
1360.000000	86.0	-143.9207
1380.000000	86.1	-143.6026
1400.000000	86.2	-143.2133
1430.000000	86.4	-142.5964
1450.000000	86.5	-142.2593
1475.000000	86.7	-141.9084
1500.000000	86.8	-141.5744
1525.000000	86.9	-141.2112
1550.000000	87.0	-140.7912
1575.000000	87.1	-140.3307
1600.000000	87.2	-139.9215
1625.000000	87.3	-139.6152
1650.000000	87.3	-139.3652
1675.000000	87.4	-139.1207
1700.000000	87.5	-138.8685
1725.000000	87.6	-138.6147
1750.000000	87.6	-138.3394
1775.000000	87.7	-138.0033
1800.000000	87.7	-137.6140
1825.000000	87.8	-137.2434
1850.000000	87.9	-136.9344
1875.000000	88.0	-136.6733
1900.000000	88.1	-136.4263
1925.000000	88.2	-136.1615
1950.000000	88.3	-135.8717
1975.000000	88.4	-135.5974
2000.000000	88.5	-135.3894
2030.000000	88.7	-135.2328
2060.000000	88.9	-135.1358
2090.000000	89.0	-135.0644
2120.000000	89.1	-134.9897
2140.000000	89.2	-134.9093
2180.000000	89.4	-134.6034
2200.000000	89.4	-134.3852
2240.000000	89.6	-133.8762
2270.000000	89.8	-133.4460
2300.000000	89.9	-132.9904
2330.000000	90.1	-132.5618
2360.000000	90.3	-132.2569
2400.000000	90.6	-132.1677
2430.000000	90.8	-132.3061
2470.000000	91.0	-132.5956
2500.000000	91.1	-132.7726
2540.000000	91.3	-132.7970
2580.000000	91.5	-132.5063
2620.000000	91.7	-132.0302
2650.000000	92.0	-131.6992
2690.000000	92.3	-131.4983
2720.000000	92.6	-131.6526
2760.000000	93.1	-132.4067
2800.000000	93.5	-133.8162
2850.000000	93.9	-136.2621
2900.000000	94.2	-139.0380
2950.000000	94.3	-141.7365
3000.000000	94.5	-144.1800
3040.000000	94.5	-145.9514
3070.000000	94.6	-147.1665
3110.000000	94.6	-148.6229
3150.000000	94.6	-149.9323
3200.000000	94.7	-151.5096
3250.000000	94.8	-153.1881
3300.000000	94.9	-155.0440
3350.000000	95.0	-157.0213
3400.000000	95.0	-159.0510
3450.000000	95.0	-161.0767
3500.000000	94.9	-163.0139
3550.000000	94.9	-164.8308
3600.000000	94.8	-166.5780
3650.000000	94.8	-168.3084
3700.000000	94.7	-170.0058
3750.000000	94.5	-171.5861
3820.000000	94.3	-173.4594
3870.000000	94.1	-174.4713
3950.000000	93.8	-175.4797
4000.000000	93.6	-175.8571
4060.000000	93.4	-176.2379
4120.000000	93.3	-176.6202
4180.000000	93.1	-177.0147
4250.000000	93.0	-177.4740
4310.000000	92.8	-177.8059
4370.000000	92.7	-178.0653
4440.000000	92.6	-178.3498
4500.000000	92.4	-178.6246
4550.000000	92.3	-178.8752
4620.000000	92.2	-179.2493
4680.000000	92.1	-179.5531
4750.000000	91.9	-179.8403
4820.000000	91.8	179.9110
4870.000000	91.7	179.7203
4940.000000	91.6	179.4216
5000.000000	91.4	179.1498
5080.000000	91.2	178.8552
5150.000000	91.1	178.7726
5220.000000	90.9	178.8871
5300.000000	90.7	179.2078
5380.000000	90.5	179.6428
5450.000000	90.4	-179.9382
5520.000000	90.2	-179.4788
5600.000000	90.1	-178.8944
5700.000000	89.9	-178.1180
5800.000000	89.8	-177.3504
5900.000000	89.7	-176.5878
6000.000000	89.6	-175.7646
6080.000000	89.5	-175.0744
6150.000000	89.5	-174.4839
6220.000000	89.5	-173.9324
6300.000000	89.4	-173.3456
6400.000000	89.4	-172.6327
6500.000000	89.4	-171.9239
6600.000000	89.5	-171.2511
6700.000000	89.5	-170.6356
6800.000000	89.6	-170.0532
6900.000000	89.7	-169.5049
7000.000000	89.8	-169.0512
7100.000000	90.0	-168.7623
7200.000000	90.2	-168.6832
7300.000000	90.4	-168.8801
7400.000000	90.7	-169.4632
7500.000000	90.9	-170.5368
7620.000000	91.3	-172.5522
7750.000000	91.6	-175.7246
7880.000000	91.9	179.9680
8000.000000	92.1	175.0644
8120.000000	92.0	169.5381
8250.000000	91.8	163.2306
8380.000000	91.4	157.0745
8500.000000	90.8	151.9822
8620.000000	90.1	147.7373
8750.000000	89.3	144.2088
8850.000000	88.5	142.2719
9000.000000	87.4	140.5715
9120.000000	86.5	140.1041
9250.000000	85.6	140.3325
9380.000000	84.7	141.2072
9500.000000	83.9	142.4705
9620.000000	83.2	144.0699
9750.000000	82.5	146.1193
9880.000000	81.8	148.4390
10000.000000	81.2	150.7599
10150.000000	80.6	153.8647
10300.000000	80.0	157.1703
10440.000000	79.6	160.3912
10600.000000	79.1	164.2172
10750.000000	78.7	167.9373
10900.000000	78.3	171.7693
11060.000000	78.0	175.9930
11200.000000	77.7	179.7882
11380.000000	77.5	-175.2609
11500.000000	77.5	-171.9570
11720.000000	77.4	-165.9976
11800.000000	77.4	-163.8678
12060.000000	77.7	-157.1127
12200.000000	77.9	-153.6519
12410.000000	78.3	-148.8600
12500.000000	78.6	-147.0132
12650.000000	79.1	-144.2960
12800.000000	79.7	-142.1364
13150.000000	81.4	-140.2603
13200.000000	81.7	-140.4789
13400.000000	82.7	-142.9589
13600.000000	83.5	-148.2855
13800.000000	84.1	-156.2477
14000.000000	84.2	-165.6927
14300.000000	83.4	-178.8215
14500.000000	82.5	175.0895
14750.000000	81.1	171.1024
15000.000000	79.7	170.4167
15250.000000	78.6	171.8539
15500.000000	77.8	174.3199
15750.000000	77.4	176.8364
16000.000000	77.5	178.3401
16250.000000	78.0	177.4603
16500.000000	78.6	172.5638
16750.000000	79.0	162.5571
17000.000000	78.8	148.4372
17250.000000	77.9	133.8327
17500.000000	76.2	122.8007
17750.000000	73.9	117.1691
18000.000000	71.3	116.4450
18250.000000	68.6	119.2648
18500.000000	66.0	124.4117
18750.000000	63.6	131.0773
19000.000000	61.4	138.7466
19250.000000	59.4	146.9566
19500.000000	57.7	155.0079
19750.000000	56.3	161.7608
