* Measurement data measured by REW V5.20
* Source: Mic in at front panel (Pink) (Realtek(R) Audio), no input selected, L, volume: 0.250
* Format: 256k Log Swept Sine, 1 sweep at -12.0 dBFS with no timing reference
* Dated: Sep 4, 2021 3:51:21 PM
* REW Settings:
*  C-weighting compensation: Off
*  Target level: 75.0 dB
* Note: Tanchjim Tanya
* Measurement: Sep 4
* Smoothing: 1/12 octave
* Frequency Step: 1/48 octave
* Start Frequency: 20.000 Hz
*
* Freq(Hz)	SPL(dB)	Phase(degrees)
20.000000	88.4	-119.9155
20.299999	88.5	-120.5770
20.600000	88.6	-121.1705
20.900000	88.7	-121.7441
21.200001	88.8	-122.3807
21.400000	88.9	-122.8840
21.799999	89.0	-124.0939
22.000000	89.1	-124.7807
22.400000	89.1	-126.2022
22.700001	89.2	-127.1709
23.000000	89.2	-127.9398
23.299999	89.2	-128.4830
23.600000	89.2	-128.8480
24.000000	89.2	-129.2078
24.299999	89.3	-129.5204
24.700001	89.4	-130.1068
25.000000	89.4	-130.6740
25.400000	89.5	-131.5189
25.799999	89.6	-132.3478
26.200001	89.6	-133.1046
26.500000	89.7	-133.6423
26.900000	89.7	-134.3675
27.200001	89.7	-134.9405
27.600000	89.8	-135.7366
28.000000	89.8	-136.5205
28.500000	89.9	-137.4098
29.000000	89.9	-138.1951
29.500000	89.9	-138.9500
30.000000	90.0	-139.7376
30.400000	90.0	-140.3807
30.700001	90.1	-140.8490
31.100000	90.1	-141.4312
31.500000	90.1	-141.9640
32.000000	90.2	-142.5968
32.500000	90.2	-143.2498
33.000000	90.3	-143.9494
33.500000	90.3	-144.6755
34.000000	90.4	-145.3952
34.500000	90.4	-146.0956
35.000000	90.5	-146.7836
35.500000	90.5	-147.4680
36.000000	90.5	-148.1523
36.500000	90.5	-148.8411
37.000000	90.6	-149.5413
37.500000	90.6	-150.2527
38.200001	90.6	-151.2415
38.700001	90.6	-151.9199
39.500000	90.6	-152.9419
40.000000	90.7	-153.5479
40.599998	90.7	-154.2497
41.200001	90.7	-154.9302
41.799999	90.7	-155.5964
42.500000	90.7	-156.3602
43.099998	90.8	-157.0020
43.700001	90.8	-157.6327
44.400002	90.8	-158.3599
45.000000	90.8	-158.9776
45.500000	90.8	-159.4853
46.200001	90.8	-160.1790
46.799999	90.8	-160.7525
47.500000	90.8	-161.3928
48.200001	90.8	-162.0050
48.700001	90.8	-162.4322
49.400002	90.8	-163.0282
50.000000	90.8	-163.5445
50.799999	90.8	-164.2374
51.500000	90.8	-164.8237
52.200001	90.8	-165.3564
53.000000	90.7	-165.8785
53.799999	90.7	-166.3315
54.500000	90.7	-166.7130
55.200001	90.7	-167.1156
56.000000	90.7	-167.6193
57.000000	90.7	-168.2858
58.000000	90.7	-168.9193
59.000000	90.7	-169.4550
60.000000	90.7	-169.9319
60.799999	90.7	-170.3498
61.500000	90.8	-170.7476
62.200001	90.8	-171.1471
63.000000	90.8	-171.5899
64.000000	90.8	-172.1323
65.000000	90.8	-172.6815
66.000000	90.8	-173.2629
67.000000	90.9	-173.8770
68.000000	90.9	-174.5030
69.000000	90.9	-175.1079
70.000000	90.9	-175.6604
71.000000	90.9	-176.1562
72.000000	91.0	-176.6179
73.000000	91.0	-177.1293
74.000000	91.0	-177.8145
75.000000	91.0	-178.6504
76.199997	90.9	-179.6001
77.500000	90.8	179.5438
78.800003	90.8	178.7554
80.000000	90.7	178.0347
81.199997	90.7	177.3177
82.500000	90.7	176.5538
83.800003	90.6	175.8218
85.000000	90.6	175.1934
86.199997	90.5	174.6159
87.500000	90.5	174.0373
88.500000	90.4	173.6183
90.000000	90.4	173.0251
91.199997	90.4	172.5732
92.500000	90.3	172.1002
93.800003	90.3	171.6443
95.000000	90.2	171.2368
96.199997	90.2	170.8372
97.500000	90.1	170.4121
98.800003	90.1	170.0005
100.000000	90.1	169.6380
101.500000	90.0	169.2114
103.000000	90.0	168.8124
104.400002	89.9	168.4583
106.000000	89.9	168.0674
107.500000	89.8	167.7120
109.000000	89.8	167.3603
110.599998	89.8	166.9488
112.000000	89.7	166.5098
113.800003	89.7	165.8269
115.000000	89.6	165.3352
117.199997	89.6	164.4553
118.000000	89.6	164.1562
120.599998	89.5	163.4471
122.000000	89.5	163.3316
124.099998	89.3	163.2887
125.000000	89.3	163.2337
126.500000	89.2	163.0576
128.000000	89.2	162.8026
131.500000	89.1	162.1499
132.000000	89.1	162.0606
134.000000	89.0	161.7023
136.000000	88.9	161.3334
138.000000	88.9	160.9794
140.000000	88.8	160.6748
143.000000	88.7	160.2513
145.000000	88.7	159.8953
147.500000	88.6	159.3989
150.000000	88.5	158.9991
152.500000	88.4	158.7363
155.000000	88.3	158.5308
157.500000	88.2	158.3360
160.000000	88.2	158.1161
162.500000	88.1	157.8562
165.000000	88.0	157.5799
167.500000	87.9	157.3221
170.000000	87.9	157.1010
172.500000	87.8	156.9070
175.000000	87.7	156.7194
177.500000	87.6	156.5338
180.000000	87.6	156.3584
182.500000	87.5	156.1939
185.000000	87.4	156.0370
187.500000	87.4	155.8842
190.000000	87.3	155.7277
192.500000	87.2	155.5656
195.000000	87.2	155.4158
197.500000	87.1	155.2944
200.000000	87.0	155.2037
203.000000	86.9	155.1264
206.000000	86.9	155.0498
209.000000	86.8	154.9393
212.000000	86.7	154.8076
214.000000	86.7	154.7303
218.000000	86.5	154.6450
220.000000	86.5	154.6349
224.000000	86.4	154.6311
227.000000	86.3	154.6122
230.000000	86.2	154.5790
233.000000	86.2	154.5463
236.000000	86.1	154.5215
240.000000	86.0	154.4969
243.000000	85.9	154.4865
247.000000	85.8	154.4988
250.000000	85.8	154.5433
254.000000	85.7	154.6654
258.000000	85.6	154.8259
262.000000	85.5	154.9547
265.000000	85.5	155.0228
269.000000	85.4	155.1140
272.000000	85.3	155.2042
276.000000	85.2	155.3553
280.000000	85.2	155.5201
285.000000	85.1	155.7006
290.000000	85.1	155.7920
295.000000	85.0	155.7872
300.000000	84.9	155.7711
304.000000	84.8	155.7874
307.000000	84.8	155.8178
311.000000	84.7	155.8760
315.000000	84.6	155.9486
320.000000	84.5	156.0698
325.000000	84.5	156.2415
330.000000	84.4	156.4489
335.000000	84.3	156.6609
340.000000	84.2	156.8583
345.000000	84.1	157.0485
350.000000	84.0	157.2510
355.000000	84.0	157.4725
360.000000	83.9	157.7085
365.000000	83.8	157.9531
370.000000	83.7	158.2038
375.000000	83.7	158.4618
382.000000	83.6	158.8365
387.000000	83.5	159.1131
395.000000	83.4	159.5714
400.000000	83.3	159.8654
406.000000	83.2	160.2162
412.000000	83.2	160.5616
418.000000	83.1	160.9184
425.000000	83.0	161.3740
431.000000	82.9	161.7894
437.000000	82.9	162.2007
444.000000	82.8	162.6573
450.000000	82.7	163.0148
455.000000	82.7	163.2739
462.000000	82.6	163.5903
468.000000	82.6	163.8710
475.000000	82.5	164.2490
482.000000	82.4	164.6594
487.000000	82.4	164.9579
494.000000	82.3	165.3992
500.000000	82.2	165.8126
508.000000	82.2	166.3801
515.000000	82.1	166.8618
522.000000	82.0	167.3403
530.000000	81.9	167.9134
538.000000	81.9	168.5167
545.000000	81.8	169.0531
552.000000	81.8	169.5914
560.000000	81.7	170.1976
570.000000	81.6	170.9360
580.000000	81.6	171.6825
590.000000	81.5	172.4514
600.000000	81.4	173.2465
608.000000	81.4	173.8896
615.000000	81.4	174.4493
622.000000	81.3	175.0175
630.000000	81.3	175.6969
640.000000	81.2	176.5837
650.000000	81.2	177.4824
660.000000	81.2	178.3629
670.000000	81.2	179.1678
680.000000	81.1	179.8948
690.000000	81.1	-179.3967
700.000000	81.1	-178.6618
710.000000	81.1	-177.8921
720.000000	81.0	-177.1078
730.000000	81.0	-176.3212
740.000000	81.0	-175.5296
750.000000	81.0	-174.7282
762.000000	81.0	-173.7495
775.000000	80.9	-172.6732
788.000000	80.9	-171.5898
800.000000	80.9	-170.5745
812.000000	81.0	-169.5481
825.000000	81.0	-168.4850
838.000000	81.0	-167.5346
850.000000	81.1	-166.7294
862.000000	81.1	-165.9351
875.000000	81.1	-165.0558
885.000000	81.1	-164.3664
900.000000	81.1	-163.3346
912.000000	81.2	-162.5119
925.000000	81.2	-161.6255
938.000000	81.3	-160.7637
950.000000	81.3	-160.0028
962.000000	81.3	-159.2680
975.000000	81.4	-158.4853
988.000000	81.4	-157.7068
1000.000000	81.5	-156.9823
1015.000000	81.6	-156.0506
1030.000000	81.6	-155.1079
1044.000000	81.7	-154.2730
1060.000000	81.8	-153.4184
1075.000000	81.9	-152.6738
1090.000000	82.0	-151.9243
1106.000000	82.1	-151.1058
1120.000000	82.2	-150.3921
1138.000000	82.3	-149.5286
1150.000000	82.4	-149.0200
1172.000000	82.6	-148.2641
1180.000000	82.6	-148.0399
1206.000000	82.8	-147.4783
1220.000000	83.0	-147.2870
1241.000000	83.1	-147.0806
1250.000000	83.1	-146.9935
1265.000000	83.2	-146.8272
1280.000000	83.3	-146.6273
1315.000000	83.4	-146.0462
1320.000000	83.4	-145.9566
1340.000000	83.5	-145.5925
1360.000000	83.6	-145.2064
1380.000000	83.7	-144.7732
1400.000000	83.7	-144.2781
1430.000000	83.9	-143.5202
1450.000000	84.0	-143.0908
1475.000000	84.1	-142.6248
1500.000000	84.2	-142.1837
1525.000000	84.3	-141.6932
1550.000000	84.3	-141.0734
1575.000000	84.4	-140.3009
1600.000000	84.4	-139.4570
1625.000000	84.5	-138.6115
1650.000000	84.5	-137.7550
1675.000000	84.6	-136.8763
1700.000000	84.7	-135.9995
1725.000000	84.7	-135.1620
1750.000000	84.8	-134.3480
1775.000000	84.9	-133.4690
1800.000000	84.9	-132.4463
1825.000000	85.0	-131.2815
1850.000000	85.1	-129.9998
1875.000000	85.2	-128.6371
1900.000000	85.4	-127.2713
1925.000000	85.6	-126.0107
1950.000000	85.9	-124.9640
1975.000000	86.2	-124.2185
2000.000000	86.5	-123.7934
2030.000000	86.8	-123.5951
2060.000000	87.1	-123.5384
2090.000000	87.3	-123.4495
2120.000000	87.6	-123.2125
2140.000000	87.7	-122.9285
2180.000000	88.0	-122.0270
2200.000000	88.2	-121.4622
2240.000000	88.6	-120.3330
2270.000000	88.9	-119.6485
2300.000000	89.3	-119.2025
2330.000000	89.7	-119.0179
2360.000000	90.1	-119.0861
2400.000000	90.6	-119.5315
2430.000000	91.0	-120.0835
2470.000000	91.5	-121.0684
2500.000000	91.8	-121.9880
2540.000000	92.3	-123.4152
2580.000000	92.7	-125.0232
2620.000000	93.1	-126.8351
2650.000000	93.4	-128.3360
2690.000000	93.7	-130.4800
2720.000000	94.0	-132.1562
2760.000000	94.3	-134.4886
2800.000000	94.5	-136.9834
2850.000000	94.8	-140.3462
2900.000000	95.1	-143.9117
2950.000000	95.2	-147.5267
3000.000000	95.3	-151.0822
3040.000000	95.4	-153.8542
3070.000000	95.4	-155.8592
3110.000000	95.4	-158.3894
3150.000000	95.3	-160.7570
3200.000000	95.2	-163.5568
3250.000000	95.2	-166.2439
3300.000000	95.0	-168.8139
3350.000000	94.9	-171.1974
3400.000000	94.7	-173.3742
3450.000000	94.5	-175.3587
3500.000000	94.3	-177.1191
3550.000000	94.1	-178.6367
3600.000000	93.9	-179.9390
3650.000000	93.7	178.9521
3700.000000	93.5	178.0495
3750.000000	93.3	177.3719
3820.000000	93.0	176.7245
3870.000000	92.8	176.4177
3950.000000	92.6	176.1458
4000.000000	92.4	176.0365
4060.000000	92.3	175.8826
4120.000000	92.1	175.7083
4180.000000	92.0	175.5544
4250.000000	91.9	175.4330
4310.000000	91.8	175.4252
4370.000000	91.7	175.4950
4440.000000	91.6	175.5670
4500.000000	91.5	175.5509
4550.000000	91.5	175.4729
4620.000000	91.4	175.2676
4680.000000	91.4	175.0397
4750.000000	91.3	174.7635
4820.000000	91.3	174.4484
4870.000000	91.3	174.1659
4940.000000	91.3	173.6731
5000.000000	91.2	173.1603
5080.000000	91.2	172.3943
5150.000000	91.1	171.7124
5220.000000	91.1	171.0235
5300.000000	91.0	170.1842
5380.000000	90.9	169.2633
5450.000000	90.8	168.4083
5520.000000	90.7	167.5737
5600.000000	90.5	166.7109
5700.000000	90.3	165.7823
5800.000000	90.1	164.9955
5900.000000	89.8	164.3749
6000.000000	89.5	164.0035
6080.000000	89.3	163.8835
6150.000000	89.2	163.8741
6220.000000	89.0	163.9258
6300.000000	88.8	164.0586
6400.000000	88.6	164.3686
6500.000000	88.4	164.8399
6600.000000	88.3	165.4188
6700.000000	88.1	166.0628
6800.000000	88.0	166.7749
6900.000000	88.0	167.5338
7000.000000	88.0	168.2652
7100.000000	88.0	168.8932
7200.000000	88.1	169.3690
7300.000000	88.2	169.6200
7400.000000	88.4	169.5166
7500.000000	88.6	168.9145
7620.000000	89.0	167.3576
7750.000000	89.3	164.3720
7880.000000	89.7	159.7283
8000.000000	89.8	153.9743
8120.000000	89.7	147.2039
8250.000000	89.3	139.4756
8380.000000	88.6	132.2993
8500.000000	87.8	126.9104
8620.000000	86.7	123.0403
8750.000000	85.5	120.5388
8850.000000	84.5	119.6879
9000.000000	83.0	119.8622
9120.000000	81.9	120.9634
9250.000000	80.8	122.8654
9380.000000	79.8	125.3398
9500.000000	78.9	127.9999
9620.000000	78.1	130.9240
9750.000000	77.3	134.3431
9880.000000	76.6	137.9857
10000.000000	76.0	141.5023
10150.000000	75.3	146.0823
10300.000000	74.7	150.8488
10440.000000	74.1	155.4200
10600.000000	73.6	160.7670
10750.000000	73.2	165.8762
10900.000000	72.8	171.0389
11060.000000	72.5	176.5917
11200.000000	72.3	-178.5306
11380.000000	72.0	-172.2554
11500.000000	71.9	-168.0675
11720.000000	71.8	-160.4120
11800.000000	71.8	-157.6402
12060.000000	71.9	-148.7124
12200.000000	72.0	-143.9886
12410.000000	72.3	-137.0496
12500.000000	72.5	-134.1476
12650.000000	72.9	-129.4306
12800.000000	73.3	-124.8978
13150.000000	74.6	-115.4104
13200.000000	74.9	-114.2233
13400.000000	75.9	-110.0458
13600.000000	77.1	-106.9889
13800.000000	78.4	-105.4054
14000.000000	79.7	-105.7412
14300.000000	81.5	-110.8017
14500.000000	82.5	-117.3864
14750.000000	83.2	-128.1637
15000.000000	83.4	-139.4337
15250.000000	83.2	-149.0787
15500.000000	83.0	-156.9112
15750.000000	83.0	-164.7880
16000.000000	83.3	-175.5615
16250.000000	83.3	168.9396
16500.000000	82.7	150.4075
16750.000000	81.2	133.8553
17000.000000	78.8	123.4406
17250.000000	75.9	119.7645
17500.000000	72.8	121.2060
17750.000000	69.6	125.9310
18000.000000	66.7	132.6653
18250.000000	64.0	140.6691
18500.000000	61.7	149.5432
18750.000000	59.6	159.0594
19000.000000	57.8	169.0223
19250.000000	56.2	179.1357
19500.000000	54.8	-171.2221
19750.000000	53.7	-163.2220
