* Measurement data measured by REW V5.20.4
* Source: Microphone (Sound Blaster Play! 3), MICROPHONE (Master Volume), L, volume: 0.600
* Format: 256k Log Swept Sine, 1 sweep at -12.0 dBFS with no timing reference
* Dated: Mar 30, 2022 8:56:39 PM
* REW Settings:
*  C-weighting compensation: Off
*  Target level: 75.0 dB
* Note: Ola
* Measurement: Oxygen R Mar 30
* Smoothing: 1/12 octave
* Frequency Step: 1/48 octave
* Start Frequency: 20.000 Hz
*
* Freq(Hz)	SPL(dB)	Phase(degrees)
20.000000	96.625	-142.4592
20.299999	96.737	-144.4329
20.600000	96.848	-146.3820
20.900000	96.960	-148.3194
21.200001	97.070	-150.2564
21.400000	97.141	-151.5493
21.799999	97.277	-154.1315
22.000000	97.342	-155.4148
22.400000	97.464	-157.9492
22.700001	97.551	-159.8127
23.000000	97.636	-161.6425
23.299999	97.721	-163.4456
23.600000	97.804	-165.2299
24.000000	97.913	-167.5887
24.299999	97.992	-169.3425
24.700001	98.091	-171.6505
25.000000	98.162	-173.3501
25.400000	98.253	-175.5686
25.799999	98.343	-177.7393
26.200001	98.431	-179.8781
26.500000	98.495	178.5311
26.900000	98.577	176.4261
27.200001	98.635	174.8637
27.600000	98.706	172.8115
28.000000	98.773	170.8027
28.500000	98.851	168.3529
29.000000	98.928	165.9567
29.500000	99.002	163.5981
30.000000	99.072	161.2695
30.400000	99.125	159.4312
30.700001	99.163	158.0695
31.100000	99.213	156.2790
31.500000	99.262	154.5155
32.000000	99.322	152.3398
32.500000	99.382	150.1841
33.000000	99.438	148.0466
33.500000	99.489	145.9392
34.000000	99.536	143.8777
34.500000	99.580	141.8665
35.000000	99.624	139.8979
35.500000	99.666	137.9617
36.000000	99.706	136.0552
36.500000	99.744	134.1805
37.000000	99.779	132.3378
37.500000	99.813	130.5238
38.200001	99.857	128.0282
38.700001	99.886	126.2792
39.500000	99.930	123.5410
40.000000	99.957	121.8611
40.599998	99.988	119.8699
41.200001	100.018	117.9037
41.799999	100.047	115.9639
42.500000	100.077	113.7363
43.099998	100.100	111.8610
43.700001	100.122	110.0192
44.400002	100.146	107.9097
45.000000	100.165	106.1304
45.500000	100.179	104.6684
46.200001	100.197	102.6574
46.799999	100.212	100.9664
47.500000	100.229	99.0238
48.200001	100.244	97.1110
48.700001	100.253	95.7667
49.400002	100.266	93.9202
50.000000	100.276	92.3673
50.799999	100.290	90.3273
51.500000	100.301	88.5636
52.200001	100.309	86.8220
53.000000	100.315	84.8658
53.799999	100.317	82.9493
54.500000	100.317	81.3036
55.200001	100.315	79.6852
56.000000	100.312	77.8676
57.000000	100.306	75.6483
58.000000	100.301	73.4907
59.000000	100.299	71.3801
60.000000	100.299	69.3114
60.799999	100.299	67.6905
61.500000	100.299	66.2952
62.200001	100.298	64.9203
63.000000	100.296	63.3762
64.000000	100.292	61.4867
65.000000	100.285	59.6355
66.000000	100.276	57.8171
67.000000	100.266	56.0275
68.000000	100.254	54.2638
69.000000	100.242	52.5272
70.000000	100.229	50.8194
71.000000	100.216	49.1393
72.000000	100.202	47.4884
73.000000	100.188	45.8701
74.000000	100.173	44.2825
75.000000	100.158	42.7204
76.199997	100.139	40.8804
77.500000	100.117	38.9304
78.800003	100.094	37.0184
80.000000	100.072	35.2915
81.199997	100.049	33.6057
82.500000	100.024	31.8200
83.800003	99.998	30.0674
85.000000	99.973	28.4731
86.199997	99.948	26.9003
87.500000	99.921	25.2223
88.500000	99.901	23.9523
90.000000	99.870	22.0844
91.199997	99.844	20.6247
92.500000	99.815	19.0809
93.800003	99.785	17.5697
95.000000	99.757	16.1943
96.199997	99.728	14.8361
97.500000	99.696	13.3862
98.800003	99.664	11.9594
100.000000	99.634	10.6624
101.500000	99.597	9.0696
103.000000	99.560	7.5063
104.400002	99.525	6.0713
106.000000	99.485	4.4629
107.500000	99.448	2.9865
109.000000	99.412	1.5354
110.599998	99.375	0.0079
112.000000	99.341	-1.3145
113.800003	99.295	-2.9856
115.000000	99.262	-4.0741
117.199997	99.202	-6.0192
118.000000	99.180	-6.7122
120.599998	99.110	-8.9254
122.000000	99.073	-10.1024
124.099998	99.018	-11.8494
125.000000	98.995	-12.5880
126.500000	98.954	-13.8024
128.000000	98.914	-14.9958
131.500000	98.818	-17.7091
132.000000	98.804	-18.0897
134.000000	98.749	-19.5986
136.000000	98.695	-21.0860
138.000000	98.641	-22.5482
140.000000	98.588	-23.9788
143.000000	98.507	-26.0683
145.000000	98.450	-27.4373
147.500000	98.377	-29.1414
150.000000	98.301	-30.8223
152.500000	98.222	-32.4402
155.000000	98.140	-33.9839
157.500000	98.056	-35.4903
160.000000	97.971	-36.9833
162.500000	97.884	-38.4556
165.000000	97.794	-39.8926
167.500000	97.698	-41.2775
170.000000	97.595	-42.5840
172.500000	97.484	-43.7789
175.000000	97.369	-44.8251
177.500000	97.260	-45.6853
180.000000	97.170	-46.3411
182.500000	97.114	-46.8380
185.000000	97.102	-47.3116
187.500000	97.128	-47.9330
190.000000	97.174	-48.8093
192.500000	97.220	-49.9391
195.000000	97.252	-51.2468
197.500000	97.264	-52.6432
200.000000	97.257	-54.0604
203.000000	97.225	-55.7247
206.000000	97.176	-57.3099
209.000000	97.118	-58.8171
212.000000	97.054	-60.2607
214.000000	97.011	-61.1909
218.000000	96.923	-62.9822
220.000000	96.880	-63.8505
224.000000	96.796	-65.5438
227.000000	96.733	-66.7753
230.000000	96.669	-67.9733
233.000000	96.605	-69.1414
236.000000	96.541	-70.2843
240.000000	96.458	-71.7753
243.000000	96.396	-72.8690
247.000000	96.314	-74.2892
250.000000	96.253	-75.3256
254.000000	96.172	-76.6749
258.000000	96.092	-77.9949
262.000000	96.014	-79.2852
265.000000	95.955	-80.2317
269.000000	95.877	-81.4638
272.000000	95.819	-82.3651
276.000000	95.745	-83.5403
280.000000	95.673	-84.6933
285.000000	95.584	-86.1049
290.000000	95.496	-87.4779
295.000000	95.411	-88.8131
300.000000	95.327	-90.1144
304.000000	95.261	-91.1325
307.000000	95.211	-91.8844
311.000000	95.147	-92.8723
315.000000	95.083	-93.8412
320.000000	95.006	-95.0231
325.000000	94.930	-96.1743
330.000000	94.856	-97.2976
335.000000	94.782	-98.3967
340.000000	94.711	-99.4744
345.000000	94.641	-100.5303
350.000000	94.572	-101.5615
355.000000	94.504	-102.5685
360.000000	94.436	-103.5519
365.000000	94.369	-104.5100
370.000000	94.303	-105.4451
375.000000	94.239	-106.3604
382.000000	94.150	-107.6064
387.000000	94.088	-108.4726
395.000000	93.991	-109.8203
400.000000	93.932	-110.6379
406.000000	93.862	-111.5930
412.000000	93.794	-112.5184
418.000000	93.727	-113.4178
425.000000	93.651	-114.4397
431.000000	93.588	-115.2912
437.000000	93.526	-116.1193
444.000000	93.456	-117.0565
450.000000	93.398	-117.8358
455.000000	93.351	-118.4681
462.000000	93.286	-119.3278
468.000000	93.232	-120.0424
475.000000	93.169	-120.8514
482.000000	93.108	-121.6361
487.000000	93.066	-122.1821
494.000000	93.009	-122.9258
500.000000	92.962	-123.5440
508.000000	92.900	-124.3399
515.000000	92.848	-125.0095
522.000000	92.798	-125.6556
530.000000	92.743	-126.3680
538.000000	92.690	-127.0552
545.000000	92.647	-127.6383
552.000000	92.605	-128.2056
560.000000	92.559	-128.8343
570.000000	92.504	-129.5905
580.000000	92.451	-130.3120
590.000000	92.401	-130.9983
600.000000	92.353	-131.6494
608.000000	92.317	-132.1454
615.000000	92.287	-132.5621
622.000000	92.259	-132.9641
630.000000	92.230	-133.4078
640.000000	92.195	-133.9418
650.000000	92.165	-134.4551
660.000000	92.137	-134.9500
670.000000	92.111	-135.4319
680.000000	92.087	-135.9092
690.000000	92.062	-136.3859
700.000000	92.031	-136.8455
710.000000	91.993	-137.2383
720.000000	91.955	-137.5115
730.000000	91.930	-137.6784
740.000000	91.922	-137.8206
750.000000	91.926	-138.0009
762.000000	91.933	-138.2711
775.000000	91.934	-138.5778
788.000000	91.928	-138.8181
800.000000	91.922	-138.9001
812.000000	91.933	-138.8292
825.000000	91.981	-138.6968
838.000000	92.059	-138.6762
850.000000	92.138	-138.7957
862.000000	92.215	-138.9952
875.000000	92.293	-139.2404
885.000000	92.353	-139.4294
900.000000	92.443	-139.7050
912.000000	92.518	-139.9218
925.000000	92.602	-140.1590
938.000000	92.691	-140.4028
950.000000	92.777	-140.6370
962.000000	92.865	-140.8834
975.000000	92.965	-141.1670
988.000000	93.067	-141.4706
1000.000000	93.164	-141.7707
1015.000000	93.288	-142.1742
1030.000000	93.413	-142.6087
1044.000000	93.532	-143.0414
1060.000000	93.667	-143.5680
1075.000000	93.795	-144.0938
1090.000000	93.922	-144.6491
1106.000000	94.056	-145.2697
1120.000000	94.173	-145.8341
1138.000000	94.320	-146.5878
1150.000000	94.417	-147.1066
1172.000000	94.590	-148.0863
1180.000000	94.651	-148.4500
1206.000000	94.846	-149.6524
1220.000000	94.947	-150.3107
1241.000000	95.095	-151.3090
1250.000000	95.157	-151.7397
1265.000000	95.258	-152.4603
1280.000000	95.357	-153.1819
1315.000000	95.577	-154.8603
1320.000000	95.608	-155.0983
1340.000000	95.727	-156.0405
1360.000000	95.841	-156.9614
1380.000000	95.954	-157.8514
1400.000000	96.066	-158.7005
1430.000000	96.245	-159.8976
1450.000000	96.375	-160.6766
1475.000000	96.554	-161.7060
1500.000000	96.741	-162.8756
1525.000000	96.921	-164.2036
1550.000000	97.084	-165.6376
1575.000000	97.228	-167.1104
1600.000000	97.357	-168.5787
1625.000000	97.474	-170.0258
1650.000000	97.584	-171.4503
1675.000000	97.686	-172.8560
1700.000000	97.783	-174.2484
1725.000000	97.873	-175.6295
1750.000000	97.957	-176.9985
1775.000000	98.036	-178.3551
1800.000000	98.108	-179.6994
1825.000000	98.174	178.9694
1850.000000	98.234	177.6534
1875.000000	98.288	176.3557
1900.000000	98.335	175.0795
1925.000000	98.376	173.8283
1950.000000	98.410	172.6061
1975.000000	98.438	171.4187
2000.000000	98.461	170.2737
2030.000000	98.482	168.9692
2060.000000	98.499	167.7546
2090.000000	98.517	166.6371
2120.000000	98.542	165.6030
2140.000000	98.567	164.9388
2180.000000	98.634	163.5775
2200.000000	98.673	162.8405
2240.000000	98.746	161.2139
2270.000000	98.782	159.8955
2300.000000	98.796	158.5612
2330.000000	98.791	157.2712
2360.000000	98.769	156.0663
2400.000000	98.722	154.6265
2430.000000	98.680	153.6826
2470.000000	98.621	152.6130
2500.000000	98.580	151.9547
2540.000000	98.540	151.2607
2580.000000	98.530	150.7269
2620.000000	98.560	150.2329
2650.000000	98.607	149.7922
2690.000000	98.689	149.0109
2720.000000	98.750	148.2610
2760.000000	98.816	147.0870
2800.000000	98.855	145.8027
2850.000000	98.868	144.1716
2900.000000	98.845	142.6125
2950.000000	98.795	141.1912
3000.000000	98.726	139.9432
3040.000000	98.665	139.0738
3070.000000	98.619	138.4898
3110.000000	98.559	137.7864
3150.000000	98.503	137.1489
3200.000000	98.438	136.4144
3250.000000	98.376	135.7279
3300.000000	98.314	135.0910
3350.000000	98.252	134.5195
3400.000000	98.191	134.0148
3450.000000	98.135	133.5539
3500.000000	98.082	133.1099
3550.000000	98.028	132.6718
3600.000000	97.970	132.2505
3650.000000	97.903	131.8729
3700.000000	97.829	131.5704
3750.000000	97.751	131.3701
3820.000000	97.643	131.2877
3870.000000	97.575	131.3621
3950.000000	97.494	131.6382
4000.000000	97.463	131.8550
4060.000000	97.443	132.1110
4120.000000	97.438	132.3295
4180.000000	97.442	132.4910
4250.000000	97.452	132.6013
4310.000000	97.460	132.6396
4370.000000	97.462	132.6465
4440.000000	97.459	132.6448
4500.000000	97.453	132.6522
4550.000000	97.446	132.6670
4620.000000	97.435	132.6918
4680.000000	97.424	132.7064
4750.000000	97.408	132.7103
4820.000000	97.385	132.7049
4870.000000	97.364	132.7015
4940.000000	97.327	132.7058
5000.000000	97.289	132.7228
5080.000000	97.227	132.7723
5150.000000	97.163	132.8493
5220.000000	97.088	132.9678
5300.000000	96.992	133.1643
5380.000000	96.884	133.4294
5450.000000	96.780	133.7151
5520.000000	96.663	134.0508
5600.000000	96.506	134.5264
5700.000000	96.259	135.4561
5800.000000	95.973	137.2878
5900.000000	95.794	140.4271
6000.000000	95.918	143.7428
6080.000000	96.162	145.2349
6150.000000	96.358	145.4711
6220.000000	96.460	144.9491
6300.000000	96.414	144.0982
6400.000000	96.169	143.7138
6500.000000	95.850	144.4438
6600.000000	95.551	146.0228
6700.000000	95.307	148.1146
6800.000000	95.122	150.4899
6900.000000	94.995	153.0076
7000.000000	94.918	155.5759
7100.000000	94.888	158.1299
7200.000000	94.897	160.6238
7300.000000	94.942	163.0277
7400.000000	95.021	165.3198
7500.000000	95.132	167.4728
7620.000000	95.309	169.8120
7750.000000	95.548	171.9210
7880.000000	95.820	173.4075
8000.000000	96.067	174.0807
8120.000000	96.265	174.0447
8250.000000	96.371	173.3688
8380.000000	96.324	172.4544
8500.000000	96.141	171.9172
8620.000000	95.854	172.1392
8750.000000	95.506	173.5315
8850.000000	95.281	175.3786
9000.000000	95.124	178.8775
9120.000000	95.188	-178.3712
9250.000000	95.401	-176.1106
9380.000000	95.671	-174.9746
9500.000000	95.885	-174.9577
9620.000000	95.999	-175.6890
9750.000000	95.975	-176.8344
9880.000000	95.801	-177.7861
10000.000000	95.537	-178.1201
10150.000000	95.131	-177.5593
10300.000000	94.712	-175.9163
10440.000000	94.368	-173.5680
10600.000000	94.075	-170.1866
10750.000000	93.928	-166.5969
10900.000000	93.923	-162.8431
11060.000000	94.087	-158.9305
11200.000000	94.382	-155.8361
11380.000000	94.960	-152.7609
11500.000000	95.449	-151.6013
11720.000000	96.442	-152.2782
11800.000000	96.783	-153.6578
12060.000000	97.518	-162.6696
12200.000000	97.526	-169.6961
12410.000000	96.895	179.5296
12500.000000	96.396	175.6266
12650.000000	95.308	170.8262
12800.000000	93.985	168.4159
13150.000000	90.541	170.7950
13200.000000	90.053	171.8198
13400.000000	88.187	177.0467
13600.000000	86.503	-176.4233
13800.000000	85.018	-169.0570
14000.000000	83.718	-161.1375
14300.000000	82.080	-148.5723
14500.000000	81.175	-139.8777
14750.000000	80.243	-128.7522
15000.000000	79.539	-117.4105
15250.000000	79.096	-105.9763
15500.000000	78.966	-94.7503
15750.000000	79.184	-84.2337
16000.000000	79.752	-75.0028
16250.000000	80.641	-67.6977
16500.000000	81.771	-63.2726
16750.000000	82.944	-63.1252
17000.000000	83.846	-68.4796
17250.000000	84.135	-78.8287
17500.000000	83.584	-90.8447
17750.000000	82.181	-100.0443
18000.000000	80.099	-103.8632
18250.000000	77.577	-102.3314
18500.000000	74.836	-96.7211
18750.000000	72.049	-88.4134
19000.000000	69.329	-78.4815
19250.000000	66.729	-67.7566
19500.000000	64.281	-57.1558
19750.000000	62.097	-48.0864
