* Measurement data measured by REW V5.20.5
* Source: Mic in at front panel (Pink) (Realtek(R) Audio), MICROPHONE (Master Volume), L, volume: 0.250
* Format: 256k Log Swept Sine, 1 sweep at -12.0 dBFS with no timing reference
* Dated: Feb 19, 2022 4:19:51 PM
* REW Settings:
*  C-weighting compensation: Off
*  Target level: 75.0 dB
* Note: Oxygen Set 2 L
* Measurement: Oxygen L Feb 19
* Smoothing: 1/12 octave
* Frequency Step: 1/48 octave
* Start Frequency: 20.000 Hz
*
* Freq(Hz)	SPL(dB)	Phase(degrees)
20.000000	97.167	39.3116
20.299999	97.199	38.5953
20.600000	97.234	37.8716
20.900000	97.269	37.1342
21.200001	97.302	36.3853
21.400000	97.323	35.8841
21.799999	97.362	34.8877
22.000000	97.379	34.3973
22.400000	97.410	33.4393
22.700001	97.431	32.7417
23.000000	97.450	32.0611
23.299999	97.467	31.3966
23.600000	97.482	30.7485
24.000000	97.499	29.9123
24.299999	97.509	29.3088
24.700001	97.520	28.5380
25.000000	97.528	27.9850
25.400000	97.538	27.2770
25.799999	97.550	26.5947
26.200001	97.563	25.9281
26.500000	97.573	25.4330
26.900000	97.587	24.7744
27.200001	97.598	24.2795
27.600000	97.611	23.6184
28.000000	97.623	22.9579
28.500000	97.636	22.1377
29.000000	97.647	21.3253
29.500000	97.657	20.5190
30.000000	97.667	19.7176
30.400000	97.673	19.0837
30.700001	97.677	18.6158
31.100000	97.681	18.0056
31.500000	97.685	17.4121
32.000000	97.689	16.6920
32.500000	97.692	15.9935
33.000000	97.693	15.3185
33.500000	97.692	14.6701
34.000000	97.691	14.0464
34.500000	97.688	13.4384
35.000000	97.684	12.8387
35.500000	97.675	12.2490
36.000000	97.662	11.6779
36.500000	97.646	11.1300
37.000000	97.629	10.5998
37.500000	97.613	10.0752
38.200001	97.589	9.3337
38.700001	97.570	8.7991
39.500000	97.538	7.9542
40.000000	97.518	7.4412
40.599998	97.497	6.8406
41.200001	97.479	6.2457
41.799999	97.464	5.6469
42.500000	97.446	4.9486
43.099998	97.428	4.3684
43.700001	97.410	3.8157
44.400002	97.389	3.2047
45.000000	97.370	2.7070
45.500000	97.355	2.3090
46.200001	97.334	1.7665
46.799999	97.317	1.3029
47.500000	97.294	0.7621
48.200001	97.269	0.2306
48.700001	97.251	-0.1448
49.400002	97.224	-0.6731
50.000000	97.200	-1.1272
50.799999	97.163	-1.7182
51.500000	97.129	-2.2079
52.200001	97.095	-2.6622
53.000000	97.060	-3.1395
53.799999	97.032	-3.6068
54.500000	97.012	-4.0341
55.200001	96.991	-4.4748
56.000000	96.966	-4.9799
57.000000	96.933	-5.6132
58.000000	96.896	-6.2455
59.000000	96.854	-6.8641
60.000000	96.806	-7.4679
60.799999	96.762	-7.9282
61.500000	96.719	-8.3010
62.200001	96.676	-8.6422
63.000000	96.627	-9.0040
64.000000	96.570	-9.4420
65.000000	96.512	-9.8731
66.000000	96.451	-10.2514
67.000000	96.395	-10.5530
68.000000	96.348	-10.8472
69.000000	96.292	-11.1199
70.000000	96.233	-11.2310
71.000000	96.198	-11.2196
72.000000	96.191	-11.2800
73.000000	96.195	-11.4941
74.000000	96.200	-11.8531
75.000000	96.197	-12.3182
76.199997	96.180	-12.9418
77.500000	96.147	-13.6127
78.800003	96.105	-14.2043
80.000000	96.067	-14.6749
81.199997	96.032	-15.1289
82.500000	95.991	-15.6667
83.800003	95.934	-16.2276
85.000000	95.870	-16.6887
86.199997	95.808	-17.0891
87.500000	95.744	-17.5209
88.500000	95.693	-17.8549
90.000000	95.615	-18.3043
91.199997	95.557	-18.6273
92.500000	95.500	-18.9672
93.800003	95.445	-19.3039
95.000000	95.395	-19.6095
96.199997	95.345	-19.9044
97.500000	95.290	-20.2058
98.800003	95.233	-20.4864
100.000000	95.180	-20.7255
101.500000	95.116	-20.9965
103.000000	95.054	-21.2458
104.400002	94.999	-21.4751
106.000000	94.937	-21.7472
107.500000	94.878	-22.0155
109.000000	94.818	-22.3016
110.599998	94.756	-22.6272
112.000000	94.700	-22.9147
113.800003	94.621	-23.2572
115.000000	94.559	-23.4473
117.199997	94.428	-23.6658
118.000000	94.380	-23.7028
120.599998	94.256	-23.8144
122.000000	94.214	-23.9619
124.099998	94.165	-24.2476
125.000000	94.144	-24.3588
126.500000	94.103	-24.5090
128.000000	94.054	-24.6219
131.500000	93.929	-24.8612
132.000000	93.912	-24.8941
134.000000	93.859	-24.9955
136.000000	93.818	-25.0475
138.000000	93.772	-25.1012
140.000000	93.707	-25.2260
143.000000	93.578	-25.5355
145.000000	93.489	-25.7477
147.500000	93.390	-25.9557
150.000000	93.297	-26.0980
152.500000	93.205	-26.1661
155.000000	93.118	-26.1908
157.500000	93.035	-26.2118
160.000000	92.957	-26.2555
162.500000	92.886	-26.3268
165.000000	92.815	-26.4056
167.500000	92.740	-26.4667
170.000000	92.660	-26.4912
172.500000	92.580	-26.4824
175.000000	92.506	-26.4622
177.500000	92.436	-26.4471
180.000000	92.369	-26.4369
182.500000	92.303	-26.4277
185.000000	92.238	-26.4218
187.500000	92.174	-26.4168
190.000000	92.111	-26.4039
192.500000	92.048	-26.3770
195.000000	91.985	-26.3378
197.500000	91.921	-26.2890
200.000000	91.861	-26.2286
203.000000	91.792	-26.1399
206.000000	91.730	-26.0454
209.000000	91.669	-25.9564
212.000000	91.604	-25.8638
214.000000	91.556	-25.7947
218.000000	91.460	-25.6454
220.000000	91.414	-25.5695
224.000000	91.331	-25.4123
227.000000	91.274	-25.3027
230.000000	91.222	-25.2045
233.000000	91.171	-25.0970
236.000000	91.116	-24.9706
240.000000	91.034	-24.7959
243.000000	90.969	-24.6685
247.000000	90.885	-24.4847
250.000000	90.823	-24.3180
254.000000	90.748	-24.0448
258.000000	90.686	-23.7434
262.000000	90.634	-23.4803
265.000000	90.595	-23.3206
269.000000	90.536	-23.1218
272.000000	90.491	-22.9563
276.000000	90.434	-22.7020
280.000000	90.385	-22.4265
285.000000	90.339	-22.0948
290.000000	90.301	-21.8416
295.000000	90.252	-21.6842
300.000000	90.186	-21.5309
304.000000	90.130	-21.3664
307.000000	90.089	-21.2238
311.000000	90.036	-21.0232
315.000000	89.984	-20.8163
320.000000	89.918	-20.5347
325.000000	89.853	-20.2154
330.000000	89.795	-19.8764
335.000000	89.742	-19.5453
340.000000	89.693	-19.2356
345.000000	89.642	-18.9397
350.000000	89.591	-18.6405
355.000000	89.539	-18.3318
360.000000	89.488	-18.0182
365.000000	89.439	-17.7031
370.000000	89.391	-17.3829
375.000000	89.345	-17.0537
382.000000	89.284	-16.5846
387.000000	89.241	-16.2479
395.000000	89.177	-15.7041
400.000000	89.140	-15.3627
406.000000	89.097	-14.9595
412.000000	89.055	-14.5663
418.000000	89.011	-14.1656
425.000000	88.963	-13.6652
431.000000	88.927	-13.2176
437.000000	88.897	-12.7793
444.000000	88.869	-12.2946
450.000000	88.850	-11.9144
455.000000	88.836	-11.6395
462.000000	88.807	-11.3081
468.000000	88.774	-11.0206
475.000000	88.731	-10.6393
482.000000	88.690	-10.2273
487.000000	88.661	-9.9290
494.000000	88.619	-9.4913
500.000000	88.584	-9.0844
508.000000	88.545	-8.5290
515.000000	88.514	-8.0619
522.000000	88.483	-7.6035
530.000000	88.447	-7.0608
538.000000	88.414	-6.4952
545.000000	88.390	-5.9965
552.000000	88.369	-5.4979
560.000000	88.347	-4.9386
570.000000	88.322	-4.2645
580.000000	88.295	-3.5936
590.000000	88.267	-2.9091
600.000000	88.242	-2.1963
608.000000	88.226	-1.6152
615.000000	88.213	-1.1092
622.000000	88.199	-0.5960
630.000000	88.185	0.0182
640.000000	88.175	0.8198
650.000000	88.175	1.6301
660.000000	88.187	2.4218
670.000000	88.206	3.1371
680.000000	88.222	3.7721
690.000000	88.229	4.3865
700.000000	88.231	5.0273
710.000000	88.233	5.7037
720.000000	88.237	6.3956
730.000000	88.244	7.0926
740.000000	88.251	7.7984
750.000000	88.260	8.5167
762.000000	88.273	9.3962
775.000000	88.289	10.3663
788.000000	88.308	11.3535
800.000000	88.325	12.3030
812.000000	88.348	13.3162
825.000000	88.385	14.4784
838.000000	88.436	15.6907
850.000000	88.500	16.8733
862.000000	88.596	18.0883
875.000000	88.740	19.2800
885.000000	88.868	19.9908
900.000000	89.048	20.6909
912.000000	89.163	21.0805
925.000000	89.262	21.4960
938.000000	89.346	21.9664
950.000000	89.419	22.4496
962.000000	89.491	22.9731
975.000000	89.571	23.5829
988.000000	89.654	24.2317
1000.000000	89.734	24.8669
1015.000000	89.844	25.7238
1030.000000	89.974	26.6298
1044.000000	90.119	27.4520
1060.000000	90.305	28.2789
1075.000000	90.491	28.9243
1090.000000	90.685	29.4405
1106.000000	90.894	29.8323
1120.000000	91.071	30.0497
1138.000000	91.285	30.2105
1150.000000	91.419	30.2764
1172.000000	91.655	30.3646
1180.000000	91.740	30.3915
1206.000000	92.024	30.3925
1220.000000	92.176	30.2816
1241.000000	92.387	29.9813
1250.000000	92.469	29.8268
1265.000000	92.598	29.5592
1280.000000	92.716	29.2909
1315.000000	92.966	28.6906
1320.000000	92.999	28.6056
1340.000000	93.128	28.2654
1360.000000	93.250	27.9477
1380.000000	93.368	27.6914
1400.000000	93.489	27.5226
1430.000000	93.688	27.3359
1450.000000	93.824	27.1608
1475.000000	93.981	26.8982
1500.000000	94.119	26.6456
1525.000000	94.232	26.4451
1550.000000	94.324	26.3256
1575.000000	94.409	26.2766
1600.000000	94.501	26.2104
1625.000000	94.592	26.0769
1650.000000	94.677	25.9176
1675.000000	94.759	25.7706
1700.000000	94.844	25.6284
1725.000000	94.928	25.4589
1750.000000	95.005	25.2625
1775.000000	95.071	25.0762
1800.000000	95.135	24.9129
1825.000000	95.197	24.7371
1850.000000	95.251	24.5468
1875.000000	95.296	24.3922
1900.000000	95.335	24.3384
1925.000000	95.380	24.4494
1950.000000	95.448	24.7628
1975.000000	95.553	25.2507
2000.000000	95.703	25.8333
2030.000000	95.946	26.5215
2060.000000	96.254	27.0034
2090.000000	96.604	27.0642
2120.000000	96.954	26.5970
2140.000000	97.170	26.0256
2180.000000	97.536	24.4873
2200.000000	97.687	23.6028
2240.000000	97.930	21.7482
2270.000000	98.067	20.3917
2300.000000	98.180	19.1465
2330.000000	98.283	18.0292
2360.000000	98.390	16.9755
2400.000000	98.535	15.5047
2430.000000	98.632	14.3026
2470.000000	98.731	12.6105
2500.000000	98.777	11.3368
2540.000000	98.804	9.7504
2580.000000	98.808	8.3718
2620.000000	98.806	7.1594
2650.000000	98.802	6.3269
2690.000000	98.794	5.3268
2720.000000	98.792	4.6664
2760.000000	98.802	3.8503
2800.000000	98.826	3.0061
2850.000000	98.858	1.8226
2900.000000	98.869	0.5210
2950.000000	98.849	-0.7545
3000.000000	98.809	-1.9155
3040.000000	98.767	-2.7667
3070.000000	98.730	-3.3472
3110.000000	98.677	-4.0173
3150.000000	98.628	-4.5803
3200.000000	98.578	-5.2096
3250.000000	98.536	-5.8259
3300.000000	98.491	-6.4365
3350.000000	98.439	-6.9883
3400.000000	98.386	-7.4637
3450.000000	98.331	-7.8540
3500.000000	98.277	-8.0919
3550.000000	98.237	-8.1453
3600.000000	98.226	-8.0805
3650.000000	98.246	-8.0059
3700.000000	98.289	-7.9969
3750.000000	98.349	-8.0779
3820.000000	98.447	-8.3839
3870.000000	98.514	-8.7286
3950.000000	98.619	-9.4114
4000.000000	98.690	-9.9490
4060.000000	98.776	-10.7743
4120.000000	98.850	-11.7953
4180.000000	98.906	-12.9733
4250.000000	98.939	-14.4941
4310.000000	98.938	-15.8397
4370.000000	98.918	-17.1918
4440.000000	98.876	-18.8353
4500.000000	98.819	-20.3361
4550.000000	98.753	-21.6408
4620.000000	98.624	-23.5150
4680.000000	98.475	-25.0937
4750.000000	98.263	-26.8068
4820.000000	98.022	-28.3629
4870.000000	97.834	-29.3892
4940.000000	97.549	-30.6983
5000.000000	97.284	-31.6843
5080.000000	96.896	-32.7335
5150.000000	96.534	-33.3265
5220.000000	96.165	-33.6135
5300.000000	95.746	-33.6259
5380.000000	95.333	-33.3587
5450.000000	94.974	-32.9128
5520.000000	94.614	-32.2400
5600.000000	94.213	-31.1747
5700.000000	93.742	-29.4515
5800.000000	93.318	-27.3589
5900.000000	92.953	-24.9096
6000.000000	92.678	-22.2358
6080.000000	92.525	-20.2017
6150.000000	92.414	-18.5731
6220.000000	92.307	-16.9989
6300.000000	92.189	-15.1381
6400.000000	92.069	-12.6337
6500.000000	92.004	-9.9832
6600.000000	92.005	-7.3096
6700.000000	92.071	-4.7030
6800.000000	92.199	-2.1919
6900.000000	92.395	0.1783
7000.000000	92.657	2.3076
7100.000000	92.985	4.0892
7200.000000	93.379	5.4371
7300.000000	93.840	6.2300
7400.000000	94.359	6.2738
7500.000000	94.907	5.3542
7620.000000	95.549	2.7391
7750.000000	96.133	-2.1616
7880.000000	96.473	-9.1379
8000.000000	96.469	-16.7745
8120.000000	96.119	-24.4948
8250.000000	95.379	-31.7761
8380.000000	94.341	-37.1063
8500.000000	93.214	-40.0173
8620.000000	92.018	-41.1322
8750.000000	90.732	-40.6900
8850.000000	89.785	-39.4226
9000.000000	88.469	-36.3588
9120.000000	87.521	-33.1562
9250.000000	86.598	-29.1109
9380.000000	85.782	-24.5664
9500.000000	85.128	-20.0342
9620.000000	84.567	-15.2745
9750.000000	84.062	-9.9200
9880.000000	83.661	-4.4136
10000.000000	83.381	0.7484
10150.000000	83.142	7.2769
10300.000000	83.029	13.8726
10440.000000	83.041	20.0481
10600.000000	83.206	27.1112
10750.000000	83.538	33.7021
10900.000000	84.087	40.1606
11060.000000	84.976	46.6954
11200.000000	86.053	51.7289
11380.000000	87.790	56.2127
11500.000000	89.048	57.1016
11720.000000	91.123	52.3403
11800.000000	91.697	48.4163
12060.000000	92.621	30.2341
12200.000000	92.512	19.4139
12410.000000	91.655	5.2658
12500.000000	91.075	0.5419
12650.000000	89.892	-5.1565
12800.000000	88.529	-8.1447
13150.000000	85.227	-6.7770
13200.000000	84.788	-5.8997
13400.000000	83.188	-1.3290
13600.000000	81.876	4.4137
13800.000000	80.859	10.8273
14000.000000	80.129	17.5817
14300.000000	79.582	27.7834
14500.000000	79.627	34.2050
14750.000000	80.211	40.9364
15000.000000	81.337	44.6787
15250.000000	82.738	43.2192
15500.000000	83.928	34.3738
15750.000000	84.354	18.4717
16000.000000	83.665	0.7767
16250.000000	81.906	-11.9946
16500.000000	79.413	-17.3287
16750.000000	76.595	-16.7350
17000.000000	73.800	-12.6190
17250.000000	71.259	-6.7056
17500.000000	69.067	0.0352
17750.000000	67.214	7.0670
18000.000000	65.634	14.0627
18250.000000	64.247	20.8113
18500.000000	62.981	27.1922
18750.000000	61.775	33.1776
19000.000000	60.573	38.8206
19250.000000	59.335	44.1813
19500.000000	58.073	49.1697
19750.000000	56.918	53.3494
