* Measurement data measured by REW V5.20
* Source: Mic in at front panel (Pink) (Realtek(R) Audio), MICROPHONE (Master Volume), L, volume: 0.250
* Format: 256k Log Swept Sine, 1 sweep at -12.0 dBFS with no timing reference
* Dated: Dec 23, 2021 1:02:55 PM
* REW Settings:
*  C-weighting compensation: Off
*  Target level: 75.0 dB
* Note: Oxygen L
* Measurement: Oxygen L
* Smoothing: 1/12 octave
* Frequency Step: 1/48 octave
* Start Frequency: 20.000 Hz
*
* Freq(Hz)	SPL(dB)	Phase(degrees)
20.000000	98.2	-142.1546
20.299999	98.2	-142.8667
20.600000	98.3	-143.5671
20.900000	98.3	-144.2541
21.200001	98.3	-144.9256
21.400000	98.3	-145.3639
21.799999	98.4	-146.2186
22.000000	98.4	-146.6356
22.400000	98.4	-147.4516
22.700001	98.4	-148.0506
23.000000	98.4	-148.6404
23.299999	98.4	-149.2218
23.600000	98.5	-149.7947
24.000000	98.5	-150.5452
24.299999	98.5	-151.0980
24.700001	98.5	-151.8226
25.000000	98.5	-152.3569
25.400000	98.5	-153.0558
25.799999	98.5	-153.7360
26.200001	98.5	-154.3948
26.500000	98.5	-154.8760
26.900000	98.5	-155.5045
27.200001	98.5	-155.9688
27.600000	98.5	-156.5782
28.000000	98.5	-157.1676
28.500000	98.5	-157.8528
29.000000	98.5	-158.4627
29.500000	98.5	-159.0096
30.000000	98.5	-159.5355
30.400000	98.5	-159.9702
30.700001	98.5	-160.3132
31.100000	98.6	-160.7955
31.500000	98.6	-161.3030
32.000000	98.6	-161.9609
32.500000	98.6	-162.6270
33.000000	98.6	-163.2803
33.500000	98.6	-163.9077
34.000000	98.6	-164.5074
34.500000	98.6	-165.0878
35.000000	98.6	-165.6561
35.500000	98.6	-166.2129
36.000000	98.6	-166.7545
36.500000	98.5	-167.2794
37.000000	98.5	-167.7893
37.500000	98.5	-168.2855
38.200001	98.5	-168.9570
38.700001	98.5	-169.4209
39.500000	98.5	-170.1373
40.000000	98.5	-170.5643
40.599998	98.4	-171.0494
41.200001	98.4	-171.5106
41.799999	98.4	-171.9673
42.500000	98.4	-172.5186
43.099998	98.4	-173.0093
43.700001	98.4	-173.5027
44.400002	98.4	-174.0594
45.000000	98.3	-174.5079
45.500000	98.3	-174.8616
46.200001	98.3	-175.3380
46.799999	98.3	-175.7401
47.500000	98.3	-176.2081
48.200001	98.2	-176.6778
48.700001	98.2	-177.0173
49.400002	98.2	-177.4972
50.000000	98.2	-177.9019
50.799999	98.1	-178.4071
51.500000	98.1	-178.8061
52.200001	98.1	-179.1727
53.000000	98.0	-179.5681
53.799999	98.0	-179.9449
54.500000	98.0	179.7460
55.200001	97.9	179.4613
56.000000	97.9	179.1548
57.000000	97.9	178.7449
58.000000	97.9	178.2565
59.000000	97.9	177.7190
60.000000	97.8	177.2026
60.799999	97.8	176.8372
61.500000	97.8	176.5519
62.200001	97.8	176.2820
63.000000	97.8	175.9691
64.000000	97.7	175.5620
65.000000	97.7	175.1656
66.000000	97.7	174.7961
67.000000	97.6	174.4348
68.000000	97.6	174.0681
69.000000	97.6	173.6905
70.000000	97.5	173.3103
71.000000	97.5	172.9503
72.000000	97.4	172.6157
73.000000	97.4	172.2993
74.000000	97.4	172.0016
75.000000	97.3	171.7267
76.199997	97.3	171.4192
77.500000	97.3	171.0941
78.800003	97.2	170.7480
80.000000	97.2	170.3730
81.199997	97.1	169.9702
82.500000	97.1	169.5342
83.800003	97.0	169.1111
85.000000	97.0	168.7573
86.199997	96.9	168.4564
87.500000	96.9	168.1953
88.500000	96.8	168.0234
90.000000	96.8	167.7627
91.199997	96.8	167.5286
92.500000	96.7	167.2569
93.800003	96.7	166.9832
95.000000	96.6	166.7389
96.199997	96.6	166.5086
97.500000	96.5	166.2772
98.800003	96.5	166.0628
100.000000	96.4	165.8763
101.500000	96.4	165.6544
103.000000	96.3	165.4438
104.400002	96.3	165.2579
106.000000	96.2	165.0591
107.500000	96.2	164.8823
109.000000	96.1	164.6978
110.599998	96.1	164.4716
112.000000	96.1	164.2536
113.800003	96.0	164.0058
115.000000	95.9	163.9096
117.199997	95.9	163.9257
118.000000	95.9	163.9646
120.599998	95.8	163.9075
122.000000	95.7	163.7307
124.099998	95.6	163.4423
125.000000	95.6	163.3342
126.500000	95.5	163.1808
128.000000	95.5	163.0599
131.500000	95.4	162.8549
132.000000	95.4	162.8269
134.000000	95.3	162.7057
136.000000	95.3	162.5797
138.000000	95.2	162.4740
140.000000	95.1	162.3917
143.000000	95.1	162.2801
145.000000	95.0	162.2113
147.500000	94.9	162.1415
150.000000	94.8	162.0926
152.500000	94.8	162.0725
155.000000	94.7	162.0990
157.500000	94.6	162.1553
160.000000	94.5	162.1940
162.500000	94.5	162.1948
165.000000	94.4	162.1773
167.500000	94.4	162.1743
170.000000	94.3	162.2045
172.500000	94.2	162.2628
175.000000	94.1	162.3294
177.500000	94.1	162.3940
180.000000	94.0	162.4618
182.500000	94.0	162.5359
185.000000	93.9	162.6088
187.500000	93.9	162.6747
190.000000	93.8	162.7379
192.500000	93.8	162.8043
195.000000	93.7	162.8785
197.500000	93.7	162.9663
200.000000	93.6	163.0715
203.000000	93.5	163.2179
206.000000	93.5	163.3651
209.000000	93.4	163.4900
212.000000	93.4	163.6021
214.000000	93.3	163.6857
218.000000	93.3	163.9075
220.000000	93.2	164.0438
224.000000	93.1	164.3257
227.000000	93.1	164.5220
230.000000	93.1	164.7046
233.000000	93.0	164.8802
236.000000	93.0	165.0510
240.000000	92.9	165.2690
243.000000	92.8	165.4316
247.000000	92.8	165.6700
250.000000	92.7	165.8831
254.000000	92.7	166.2246
258.000000	92.6	166.5884
262.000000	92.6	166.8978
265.000000	92.5	167.0925
269.000000	92.5	167.3521
272.000000	92.4	167.5674
276.000000	92.4	167.8787
280.000000	92.4	168.2036
285.000000	92.3	168.5961
290.000000	92.3	168.9087
295.000000	92.3	169.1317
300.000000	92.2	169.3528
304.000000	92.2	169.5664
307.000000	92.1	169.7433
311.000000	92.1	169.9871
315.000000	92.0	170.2333
320.000000	92.0	170.5605
325.000000	91.9	170.9270
330.000000	91.9	171.3163
335.000000	91.9	171.7008
340.000000	91.8	172.0651
345.000000	91.8	172.4160
350.000000	91.7	172.7710
355.000000	91.7	173.1366
360.000000	91.6	173.5082
365.000000	91.6	173.8815
370.000000	91.6	174.2567
375.000000	91.5	174.6352
382.000000	91.5	175.1696
387.000000	91.4	175.5538
395.000000	91.4	176.1734
400.000000	91.4	176.5615
406.000000	91.3	177.0192
412.000000	91.3	177.4650
418.000000	91.3	177.9159
425.000000	91.2	178.4733
431.000000	91.2	178.9708
437.000000	91.2	179.4605
444.000000	91.2	-179.9953
450.000000	91.2	-179.5675
455.000000	91.2	-179.2546
462.000000	91.1	-178.8693
468.000000	91.1	-178.5343
475.000000	91.1	-178.0990
482.000000	91.1	-177.6358
487.000000	91.0	-177.3017
494.000000	91.0	-176.8143
500.000000	91.0	-176.3652
508.000000	90.9	-175.7543
515.000000	90.9	-175.2387
522.000000	90.9	-174.7305
530.000000	90.9	-174.1298
538.000000	90.9	-173.5075
545.000000	90.8	-172.9617
552.000000	90.8	-172.4183
560.000000	90.8	-171.8091
570.000000	90.8	-171.0726
580.000000	90.8	-170.3368
590.000000	90.8	-169.5833
600.000000	90.8	-168.8034
608.000000	90.8	-168.1729
615.000000	90.8	-167.6260
622.000000	90.8	-167.0730
630.000000	90.8	-166.4136
640.000000	90.8	-165.5560
650.000000	90.8	-164.6911
660.000000	90.8	-163.8468
670.000000	90.8	-163.0803
680.000000	90.9	-162.3957
690.000000	90.9	-161.7336
700.000000	90.9	-161.0476
710.000000	90.9	-160.3297
720.000000	90.9	-159.6014
730.000000	91.0	-158.8756
740.000000	91.0	-158.1502
750.000000	91.0	-157.4231
762.000000	91.1	-156.5501
775.000000	91.1	-155.6135
788.000000	91.2	-154.7084
800.000000	91.2	-153.9282
812.000000	91.3	-153.2480
825.000000	91.4	-152.7018
838.000000	91.4	-152.3430
850.000000	91.4	-151.9721
862.000000	91.4	-151.2995
875.000000	91.3	-150.1273
885.000000	91.3	-149.0179
900.000000	91.4	-147.3182
912.000000	91.5	-146.0679
925.000000	91.6	-144.8549
938.000000	91.7	-143.7755
950.000000	91.8	-142.8727
962.000000	91.9	-142.0265
975.000000	92.0	-141.1385
988.000000	92.2	-140.2610
1000.000000	92.3	-139.4522
1015.000000	92.4	-138.4401
1030.000000	92.6	-137.4765
1044.000000	92.8	-136.7104
1060.000000	93.1	-136.0634
1075.000000	93.3	-135.6389
1090.000000	93.4	-135.3166
1106.000000	93.6	-135.0446
1120.000000	93.8	-134.8524
1138.000000	94.0	-134.6509
1150.000000	94.1	-134.5370
1172.000000	94.3	-134.3534
1180.000000	94.4	-134.2916
1206.000000	94.7	-134.1656
1220.000000	94.8	-134.1929
1241.000000	95.0	-134.3361
1250.000000	95.1	-134.4104
1265.000000	95.2	-134.5282
1280.000000	95.3	-134.6281
1315.000000	95.6	-134.7798
1320.000000	95.6	-134.7962
1340.000000	95.8	-134.8566
1360.000000	95.9	-134.8932
1380.000000	96.0	-134.8750
1400.000000	96.2	-134.7825
1430.000000	96.4	-134.6104
1450.000000	96.6	-134.5712
1475.000000	96.8	-134.5961
1500.000000	97.0	-134.6471
1525.000000	97.1	-134.6838
1550.000000	97.3	-134.6807
1575.000000	97.4	-134.6546
1600.000000	97.6	-134.6999
1625.000000	97.7	-134.8715
1650.000000	97.9	-135.1250
1675.000000	98.0	-135.4105
1700.000000	98.1	-135.7139
1725.000000	98.2	-136.0408
1750.000000	98.3	-136.3700
1775.000000	98.4	-136.6601
1800.000000	98.5	-136.9153
1825.000000	98.6	-137.2015
1850.000000	98.7	-137.5506
1875.000000	98.8	-137.9328
1900.000000	98.9	-138.2942
1925.000000	99.0	-138.5832
1950.000000	99.2	-138.7824
1975.000000	99.3	-138.9425
2000.000000	99.5	-139.1478
2030.000000	99.7	-139.5268
2060.000000	99.9	-140.0738
2090.000000	100.1	-140.7886
2120.000000	100.3	-141.6552
2140.000000	100.5	-142.2919
2180.000000	100.7	-143.6162
2200.000000	100.8	-144.2819
2240.000000	100.9	-145.5724
2270.000000	101.0	-146.4586
2300.000000	101.1	-147.2791
2330.000000	101.3	-148.1097
2360.000000	101.4	-149.0744
2400.000000	101.6	-150.7059
2430.000000	101.7	-152.1397
2470.000000	101.8	-154.1353
2500.000000	101.8	-155.5842
2540.000000	101.9	-157.3619
2580.000000	101.9	-158.9836
2620.000000	101.9	-160.5842
2650.000000	101.8	-161.8120
2690.000000	101.8	-163.4241
2720.000000	101.7	-164.5486
2760.000000	101.7	-165.9039
2800.000000	101.6	-167.1226
2850.000000	101.4	-168.4817
2900.000000	101.3	-169.6571
2950.000000	101.1	-170.6109
3000.000000	101.0	-171.3822
3040.000000	100.9	-171.9316
3070.000000	100.8	-172.3013
3110.000000	100.7	-172.7056
3150.000000	100.6	-173.0066
3200.000000	100.4	-173.3013
3250.000000	100.3	-173.5843
3300.000000	100.2	-173.8806
3350.000000	100.1	-174.1288
3400.000000	100.0	-174.2704
3450.000000	99.9	-174.2575
3500.000000	99.8	-174.0243
3550.000000	99.7	-173.5828
3600.000000	99.6	-173.0433
3650.000000	99.6	-172.5150
3700.000000	99.6	-172.0343
3750.000000	99.6	-171.5838
3820.000000	99.6	-171.0136
3870.000000	99.6	-170.6455
3950.000000	99.7	-170.0668
4000.000000	99.8	-169.7544
4060.000000	99.9	-169.5143
4120.000000	100.0	-169.4436
4180.000000	100.1	-169.5306
4250.000000	100.2	-169.8138
4310.000000	100.3	-170.1577
4370.000000	100.4	-170.5899
4440.000000	100.5	-171.2987
4500.000000	100.7	-172.1463
4550.000000	100.7	-173.0303
4620.000000	100.8	-174.5276
4680.000000	100.9	-175.9927
4750.000000	100.9	-177.8177
4820.000000	100.9	-179.7347
4870.000000	100.9	178.8419
4940.000000	100.8	176.8051
5000.000000	100.7	175.0596
5080.000000	100.5	172.8462
5150.000000	100.2	171.1347
5220.000000	100.0	169.6773
5300.000000	99.6	168.3125
5380.000000	99.3	167.2600
5450.000000	98.9	166.6123
5520.000000	98.6	166.2716
5600.000000	98.2	166.2847
5700.000000	97.7	166.7924
5800.000000	97.3	167.5997
5900.000000	96.9	168.5605
6000.000000	96.5	169.7571
6080.000000	96.3	170.9206
6150.000000	96.1	172.0625
6220.000000	95.9	173.2839
6300.000000	95.7	174.7593
6400.000000	95.5	176.7278
6500.000000	95.4	178.8121
6600.000000	95.3	-179.0487
6700.000000	95.2	-176.8908
6800.000000	95.3	-174.7025
6900.000000	95.4	-172.5084
7000.000000	95.5	-170.4092
7100.000000	95.8	-168.5280
7200.000000	96.1	-166.9710
7300.000000	96.5	-165.8757
7400.000000	97.1	-165.4473
7500.000000	97.6	-165.9145
7620.000000	98.3	-167.9492
7750.000000	99.1	-172.3307
7880.000000	99.6	-179.1776
8000.000000	99.8	172.7181
8120.000000	99.6	163.9065
8250.000000	99.1	154.9514
8380.000000	98.1	147.8144
8500.000000	97.0	143.3796
8620.000000	95.8	140.9709
8750.000000	94.5	140.2515
8850.000000	93.5	140.7556
9000.000000	92.1	142.8148
9120.000000	91.1	145.2726
9250.000000	90.2	148.5078
9380.000000	89.4	152.2029
9500.000000	88.7	155.9120
9620.000000	88.1	159.8218
9750.000000	87.6	164.2400
9880.000000	87.2	168.8057
10000.000000	86.9	173.1001
10150.000000	86.6	178.5435
10300.000000	86.4	-175.9567
10440.000000	86.4	-170.8301
10600.000000	86.5	-165.0241
10750.000000	86.7	-159.6968
10900.000000	87.1	-154.6030
11060.000000	87.8	-149.6167
11200.000000	88.6	-145.9245
11380.000000	89.8	-142.7941
11500.000000	90.7	-142.2413
11720.000000	92.3	-145.6136
11800.000000	92.7	-148.3212
12060.000000	93.6	-160.9545
12200.000000	93.7	-168.8255
12410.000000	93.3	179.6664
12500.000000	93.0	175.1638
12650.000000	92.3	168.6928
12800.000000	91.3	163.9450
13150.000000	88.6	160.3224
13200.000000	88.2	160.5573
13400.000000	86.7	162.8667
13600.000000	85.4	166.7898
13800.000000	84.4	171.7122
14000.000000	83.6	177.2095
14300.000000	82.9	-174.1505
14500.000000	82.9	-168.5721
14750.000000	83.3	-162.5161
15000.000000	84.2	-158.6293
15250.000000	85.6	-158.8824
15500.000000	87.0	-165.8296
15750.000000	87.7	179.5450
16000.000000	87.4	161.0201
16250.000000	86.0	145.6331
16500.000000	83.7	137.5121
16750.000000	81.0	136.0714
17000.000000	78.3	138.9193
17250.000000	75.7	144.0358
17500.000000	73.6	150.1593
17750.000000	71.8	156.5117
18000.000000	70.4	162.5294
18250.000000	69.2	167.7982
18500.000000	68.1	172.4072
18750.000000	66.9	177.4855
19000.000000	65.6	-175.8624
19250.000000	64.4	-168.7780
19500.000000	63.5	-163.0510
19750.000000	62.7	-159.1492
