* Measurement data measured by REW V5.20.13
* Source: EXCL: Mic in at front panel (Pink) (Realtek(R) Audio), MICROPHONE (Master Volume), L, volume: 0.250
* Format: 256k Log Swept Sine, 1 sweep at -12.0 dBFS with no timing reference
* Dated: Jan 6, 2023 12:01:37 PM
* REW Settings:
*  C-weighting compensation: Off
*  Target level: 75.0 dB
* Note: Tangzu Heyday Micropore L
* Measurement: Tangzu Heyday Micropore L
* Smoothing: 1/12 octave
* Frequency Step: 1/48 octave
* Start Frequency: 20.000 Hz
*
* Freq(Hz)	SPL(dB)	Phase(degrees)
20.000000	96.913	179.0099
20.299999	96.890	178.4205
20.600000	96.863	177.8486
20.900000	96.833	177.3065
21.200001	96.802	176.8040
21.400000	96.782	176.4920
21.799999	96.744	175.9160
22.000000	96.728	175.6459
22.400000	96.702	175.1246
22.700001	96.686	174.7367
23.000000	96.674	174.3412
23.299999	96.663	173.9337
23.600000	96.652	173.5136
24.000000	96.636	172.9368
24.299999	96.621	172.4974
24.700001	96.599	171.9109
25.000000	96.580	171.4757
25.400000	96.552	170.9048
25.799999	96.522	170.3442
26.200001	96.491	169.7918
26.500000	96.466	169.3826
26.900000	96.431	168.8449
27.200001	96.403	168.4492
27.600000	96.366	167.9329
28.000000	96.327	167.4298
28.500000	96.278	166.8196
29.000000	96.228	166.2310
29.500000	96.179	165.6636
30.000000	96.132	165.1112
30.400000	96.094	164.6751
30.700001	96.065	164.3508
31.100000	96.027	163.9251
31.500000	95.987	163.5114
32.000000	95.937	163.0149
32.500000	95.887	162.5374
33.000000	95.838	162.0728
33.500000	95.788	161.6205
34.000000	95.738	161.1837
34.500000	95.688	160.7594
35.000000	95.639	160.3394
35.500000	95.589	159.9202
36.000000	95.538	159.5087
36.500000	95.486	159.1132
37.000000	95.435	158.7305
37.500000	95.385	158.3483
38.200001	95.315	157.8043
38.700001	95.261	157.4239
39.500000	95.171	156.8709
40.000000	95.117	156.5589
40.599998	95.054	156.1971
41.200001	94.994	155.8324
41.799999	94.932	155.4673
42.500000	94.857	155.0575
43.099998	94.793	154.7277
43.700001	94.729	154.4152
44.400002	94.657	154.0659
45.000000	94.597	153.7738
45.500000	94.549	153.5312
46.200001	94.483	153.1881
46.799999	94.427	152.8930
47.500000	94.361	152.5581
48.200001	94.294	152.2410
48.700001	94.247	152.0246
49.400002	94.183	151.7308
50.000000	94.127	151.4856
50.799999	94.051	151.1740
51.500000	93.985	150.9193
52.200001	93.920	150.6737
53.000000	93.846	150.3969
53.799999	93.770	150.1375
54.500000	93.705	149.9358
55.200001	93.643	149.7488
56.000000	93.577	149.5294
57.000000	93.497	149.2267
58.000000	93.412	148.9073
59.000000	93.323	148.5982
60.000000	93.231	148.3138
60.799999	93.158	148.1036
61.500000	93.096	147.9234
62.200001	93.036	147.7404
63.000000	92.968	147.5348
64.000000	92.885	147.3092
65.000000	92.809	147.1326
66.000000	92.740	146.9889
67.000000	92.677	146.8490
68.000000	92.612	146.6754
69.000000	92.534	146.4715
70.000000	92.437	146.3151
71.000000	92.335	146.2399
72.000000	92.241	146.1742
73.000000	92.154	146.0544
74.000000	92.068	145.8925
75.000000	91.984	145.7461
76.199997	91.898	145.6335
77.500000	91.826	145.5201
78.800003	91.761	145.3647
80.000000	91.695	145.2121
81.199997	91.622	145.0619
82.500000	91.536	144.8939
83.800003	91.446	144.7244
85.000000	91.360	144.5874
86.199997	91.270	144.4887
87.500000	91.168	144.4341
88.500000	91.088	144.4212
90.000000	90.968	144.4186
91.199997	90.881	144.3951
92.500000	90.802	144.3055
93.800003	90.732	144.1660
95.000000	90.666	144.0745
96.199997	90.596	144.0945
97.500000	90.516	144.2286
98.800003	90.435	144.3649
100.000000	90.356	144.4192
101.500000	90.262	144.3934
103.000000	90.188	144.3345
104.400002	90.133	144.3509
106.000000	90.063	144.5470
107.500000	89.975	144.8752
109.000000	89.875	145.1873
110.599998	89.785	145.3610
112.000000	89.738	145.4860
113.800003	89.713	146.1341
115.000000	89.696	147.1921
117.199997	89.644	150.5794
118.000000	89.639	151.9828
120.599998	89.665	153.6550
122.000000	89.555	152.0062
124.099998	89.252	148.6739
125.000000	89.144	147.5652
126.500000	89.029	146.4496
128.000000	88.968	146.1484
131.500000	88.824	146.5884
132.000000	88.801	146.6266
134.000000	88.732	146.6759
136.000000	88.704	146.7440
138.000000	88.659	146.9651
140.000000	88.537	147.4102
143.000000	88.312	148.4581
145.000000	88.255	149.1471
147.500000	88.288	149.8522
150.000000	88.337	150.4423
152.500000	88.334	150.8074
155.000000	88.248	150.8593
157.500000	88.107	150.9789
160.000000	88.001	151.2472
162.500000	87.944	151.3833
165.000000	87.898	151.3636
167.500000	87.846	151.3150
170.000000	87.790	151.3443
172.500000	87.734	151.4529
175.000000	87.678	151.5284
177.500000	87.617	151.5383
180.000000	87.552	151.5649
182.500000	87.490	151.6448
185.000000	87.430	151.7614
187.500000	87.371	151.8997
190.000000	87.312	152.0537
192.500000	87.250	152.2244
195.000000	87.185	152.4129
197.500000	87.120	152.6201
200.000000	87.056	152.8478
203.000000	86.986	153.1437
206.000000	86.923	153.4390
209.000000	86.863	153.7075
212.000000	86.804	153.9545
214.000000	86.762	154.1226
218.000000	86.680	154.5057
220.000000	86.642	154.7243
224.000000	86.578	155.1838
227.000000	86.539	155.5325
230.000000	86.503	155.8772
233.000000	86.462	156.1858
236.000000	86.412	156.4408
240.000000	86.340	156.7433
243.000000	86.288	156.9779
247.000000	86.220	157.3228
250.000000	86.170	157.6176
254.000000	86.108	158.0665
258.000000	86.058	158.5371
262.000000	86.018	158.9559
265.000000	85.987	159.2299
269.000000	85.942	159.5833
272.000000	85.907	159.8649
276.000000	85.863	160.2713
280.000000	85.825	160.6988
285.000000	85.790	161.2190
290.000000	85.763	161.6534
295.000000	85.731	161.9761
300.000000	85.686	162.2747
304.000000	85.646	162.5501
307.000000	85.617	162.7762
311.000000	85.579	163.0853
315.000000	85.541	163.3895
320.000000	85.491	163.7770
325.000000	85.443	164.1981
330.000000	85.401	164.6433
335.000000	85.366	165.0865
340.000000	85.332	165.5104
345.000000	85.299	165.9138
350.000000	85.265	166.3097
355.000000	85.232	166.7086
360.000000	85.200	167.1100
365.000000	85.169	167.5117
370.000000	85.140	167.9156
375.000000	85.112	168.3226
382.000000	85.076	168.8913
387.000000	85.052	169.2953
395.000000	85.016	169.9381
400.000000	84.995	170.3334
406.000000	84.972	170.7957
412.000000	84.949	171.2472
418.000000	84.925	171.7064
425.000000	84.899	172.2721
431.000000	84.882	172.7723
437.000000	84.871	173.2611
444.000000	84.865	173.8003
450.000000	84.864	174.2205
455.000000	84.863	174.5246
462.000000	84.854	174.8945
468.000000	84.837	175.2142
475.000000	84.814	175.6311
482.000000	84.792	176.0753
487.000000	84.777	176.3938
494.000000	84.754	176.8557
500.000000	84.736	177.2796
508.000000	84.720	177.8536
515.000000	84.708	178.3344
522.000000	84.695	178.8046
530.000000	84.679	179.3584
538.000000	84.668	179.9305
545.000000	84.661	-179.5694
552.000000	84.657	-179.0730
560.000000	84.656	-178.5195
570.000000	84.654	-177.8563
580.000000	84.650	-177.1983
590.000000	84.646	-176.5276
600.000000	84.644	-175.8342
608.000000	84.646	-175.2757
615.000000	84.649	-174.7942
622.000000	84.651	-174.3090
630.000000	84.655	-173.7297
640.000000	84.667	-172.9751
650.000000	84.688	-172.2173
660.000000	84.721	-171.4850
670.000000	84.762	-170.8350
680.000000	84.800	-170.2702
690.000000	84.829	-169.7307
700.000000	84.852	-169.1713
710.000000	84.876	-168.5827
720.000000	84.903	-167.9838
730.000000	84.932	-167.3856
740.000000	84.962	-166.7858
750.000000	84.994	-166.1812
762.000000	85.035	-165.4491
775.000000	85.086	-164.6540
788.000000	85.142	-163.8615
800.000000	85.198	-163.1197
812.000000	85.264	-162.3715
825.000000	85.350	-161.6156
838.000000	85.441	-160.9761
850.000000	85.517	-160.4603
862.000000	85.587	-159.9584
875.000000	85.658	-159.3978
885.000000	85.714	-158.9530
900.000000	85.801	-158.2847
912.000000	85.874	-157.7506
925.000000	85.957	-157.1766
938.000000	86.044	-156.6270
950.000000	86.128	-156.1534
962.000000	86.211	-155.7060
975.000000	86.300	-155.2362
988.000000	86.389	-154.7734
1000.000000	86.472	-154.3450
1015.000000	86.580	-153.7923
1030.000000	86.699	-153.2400
1044.000000	86.822	-152.7846
1060.000000	86.965	-152.3910
1075.000000	87.092	-152.1151
1090.000000	87.211	-151.8749
1106.000000	87.332	-151.6353
1120.000000	87.435	-151.4354
1138.000000	87.564	-151.1837
1150.000000	87.648	-151.0148
1172.000000	87.804	-150.6933
1180.000000	87.862	-150.5719
1206.000000	88.066	-150.2311
1220.000000	88.179	-150.1373
1241.000000	88.337	-150.1023
1250.000000	88.399	-150.1038
1265.000000	88.498	-150.1070
1280.000000	88.592	-150.1031
1315.000000	88.803	-150.0610
1320.000000	88.833	-150.0555
1340.000000	88.950	-150.0417
1360.000000	89.060	-150.0240
1380.000000	89.165	-149.9679
1400.000000	89.272	-149.8487
1430.000000	89.452	-149.6391
1450.000000	89.577	-149.5601
1475.000000	89.728	-149.4936
1500.000000	89.874	-149.3828
1525.000000	90.028	-149.1797
1550.000000	90.206	-148.8970
1575.000000	90.424	-148.6429
1600.000000	90.676	-148.6170
1625.000000	90.932	-148.9284
1650.000000	91.168	-149.5116
1675.000000	91.377	-150.2498
1700.000000	91.562	-151.0633
1725.000000	91.726	-151.9142
1750.000000	91.869	-152.7578
1775.000000	92.000	-153.5426
1800.000000	92.131	-154.2722
1825.000000	92.265	-155.0196
1850.000000	92.398	-155.8293
1875.000000	92.522	-156.6889
1900.000000	92.637	-157.5671
1925.000000	92.746	-158.4385
1950.000000	92.858	-159.3099
1975.000000	92.975	-160.2406
2000.000000	93.089	-161.2957
2030.000000	93.209	-162.7334
2060.000000	93.298	-164.2946
2090.000000	93.352	-165.9072
2120.000000	93.371	-167.5032
2140.000000	93.363	-168.5128
2180.000000	93.315	-170.2966
2200.000000	93.283	-171.0688
2240.000000	93.217	-172.4234
2270.000000	93.168	-173.2911
2300.000000	93.127	-174.0488
2330.000000	93.103	-174.7450
2360.000000	93.098	-175.4791
2400.000000	93.102	-176.6826
2430.000000	93.090	-177.7720
2470.000000	93.032	-179.3658
2500.000000	92.947	179.4420
2540.000000	92.778	178.0527
2580.000000	92.568	177.0732
2620.000000	92.349	176.5525
2650.000000	92.195	176.4398
2690.000000	92.024	176.5845
2720.000000	91.933	176.8185
2760.000000	91.865	177.0966
2800.000000	91.834	177.1557
2850.000000	91.800	176.8844
2900.000000	91.730	176.4202
2950.000000	91.620	176.0500
3000.000000	91.495	175.9200
3040.000000	91.398	175.9771
3070.000000	91.331	176.1080
3110.000000	91.255	176.3939
3150.000000	91.204	176.7552
3200.000000	91.178	177.1787
3250.000000	91.179	177.4542
3300.000000	91.187	177.5598
3350.000000	91.189	177.5678
3400.000000	91.186	177.5261
3450.000000	91.174	177.4641
3500.000000	91.155	177.4533
3550.000000	91.142	177.5244
3600.000000	91.143	177.6227
3650.000000	91.159	177.6790
3700.000000	91.183	177.6733
3750.000000	91.214	177.6176
3820.000000	91.272	177.3901
3870.000000	91.314	177.0773
3950.000000	91.367	176.3567
4000.000000	91.386	175.7850
4060.000000	91.388	175.0050
4120.000000	91.362	174.2147
4180.000000	91.321	173.4813
4250.000000	91.270	172.6255
4310.000000	91.221	171.7784
4370.000000	91.147	170.7477
4440.000000	90.988	169.4111
4500.000000	90.762	168.5097
4550.000000	90.524	168.2422
4620.000000	90.198	168.7853
4680.000000	90.002	169.8350
4750.000000	89.908	171.0781
4820.000000	89.899	171.8669
4870.000000	89.903	172.1556
4940.000000	89.906	172.3684
5000.000000	89.915	172.4282
5080.000000	89.947	172.1659
5150.000000	89.964	171.4179
5220.000000	89.916	170.1690
5300.000000	89.714	168.5336
5380.000000	89.331	167.5126
5450.000000	88.899	167.7785
5520.000000	88.485	169.2949
5600.000000	88.183	171.9814
5700.000000	88.120	175.1358
5800.000000	88.217	176.9273
5900.000000	88.267	177.6649
6000.000000	88.229	178.1715
6080.000000	88.161	178.6871
6150.000000	88.091	179.2371
6220.000000	88.014	179.8649
6300.000000	87.918	-179.2997
6400.000000	87.790	-177.9949
6500.000000	87.674	-176.3552
6600.000000	87.589	-174.4244
6700.000000	87.539	-172.2347
6800.000000	87.532	-169.7108
6900.000000	87.604	-166.7637
7000.000000	87.813	-163.5010
7100.000000	88.194	-160.2863
7200.000000	88.733	-157.5197
7300.000000	89.400	-155.4615
7400.000000	90.166	-154.2738
7500.000000	91.004	-154.1005
7620.000000	92.069	-155.4672
7750.000000	93.219	-159.3518
7880.000000	94.216	-166.3327
8000.000000	94.827	-175.5935
8120.000000	95.006	173.2986
8250.000000	94.646	161.0620
8380.000000	93.749	150.7306
8500.000000	92.554	144.0925
8620.000000	91.151	140.5147
8750.000000	89.563	139.6944
8850.000000	88.397	140.7261
9000.000000	86.867	143.9902
9120.000000	85.877	147.3772
9250.000000	85.023	151.3224
9380.000000	84.354	155.2787
9500.000000	83.855	158.7976
9620.000000	83.429	162.1647
9750.000000	83.007	165.7575
9880.000000	82.605	169.5057
10000.000000	82.253	173.3210
10150.000000	81.883	178.8241
10300.000000	81.691	-174.8912
10440.000000	81.759	-168.7301
10600.000000	82.167	-162.0067
10750.000000	82.847	-156.6275
10900.000000	83.747	-152.7477
11060.000000	84.823	-150.9269
11200.000000	85.733	-151.7244
11380.000000	86.676	-156.1114
11500.000000	87.084	-160.8167
11720.000000	87.242	-171.4793
11800.000000	87.095	-175.4047
12060.000000	85.929	174.6961
12200.000000	84.973	172.2294
12410.000000	83.366	172.5711
12500.000000	82.690	173.9553
12650.000000	81.667	177.4322
12800.000000	80.830	-178.1431
13150.000000	79.674	-166.5639
13200.000000	79.586	-164.8917
13400.000000	79.389	-158.2751
13600.000000	79.414	-151.7868
13800.000000	79.669	-145.3849
14000.000000	80.222	-139.0544
14300.000000	81.765	-130.6822
14500.000000	83.186	-127.2872
14750.000000	85.099	-127.2068
15000.000000	86.848	-132.6560
15250.000000	88.155	-143.6357
15500.000000	88.814	-158.7335
15750.000000	88.774	-175.0793
16000.000000	88.203	169.6827
16250.000000	87.352	155.5038
16500.000000	86.310	141.1274
16750.000000	84.968	126.4086
17000.000000	83.183	112.8053
17250.000000	80.906	102.1961
17500.000000	78.189	95.6417
17750.000000	75.141	93.0463
18000.000000	71.884	93.6527
18250.000000	68.514	96.9952
18500.000000	65.066	103.8749
18750.000000	61.511	116.5820
19000.000000	57.801	137.4638
19250.000000	54.005	165.8523
19500.000000	50.522	-163.2495
19750.000000	48.105	-135.2265
20000.000000	46.990	-111.5338
