* Measurement data measured by REW V5.20.13
* Source: EXCL: Mic in at front panel (Pink) (Realtek(R) Audio), MICROPHONE (Master Volume), L, volume: 0.250
* Format: 256k Log Swept Sine, 1 sweep at -12.0 dBFS with no timing reference
* Dated: Jan 6, 2023 11:57:28 AM
* REW Settings:
*  C-weighting compensation: Off
*  Target level: 75.0 dB
* Note: Tangzu Heyday L
* Measurement: Tangzu Heyday L
* Smoothing: 1/12 octave
* Frequency Step: 1/48 octave
* Start Frequency: 20.000 Hz
*
* Freq(Hz)	SPL(dB)	Phase(degrees)
20.000000	92.979	-164.5059
20.299999	92.980	-165.0422
20.600000	92.982	-165.5629
20.900000	92.984	-166.0742
21.200001	92.987	-166.5822
21.400000	92.988	-166.9211
21.799999	92.990	-167.5981
22.000000	92.989	-167.9342
22.400000	92.985	-168.5936
22.700001	92.980	-169.0701
23.000000	92.973	-169.5267
23.299999	92.967	-169.9647
23.600000	92.963	-170.3891
24.000000	92.958	-170.9449
24.299999	92.956	-171.3633
24.700001	92.953	-171.9292
25.000000	92.950	-172.3582
25.400000	92.942	-172.9280
25.799999	92.931	-173.4831
26.200001	92.918	-174.0149
26.500000	92.908	-174.3976
26.900000	92.894	-174.8890
27.200001	92.884	-175.2457
27.600000	92.871	-175.7076
28.000000	92.858	-176.1561
28.500000	92.843	-176.7043
29.000000	92.829	-177.2528
29.500000	92.814	-177.8118
30.000000	92.795	-178.3718
30.400000	92.775	-178.8032
30.700001	92.759	-179.1091
31.100000	92.739	-179.4921
31.500000	92.721	-179.8562
32.000000	92.704	179.6892
32.500000	92.689	179.2113
33.000000	92.673	178.7098
33.500000	92.653	178.2069
34.000000	92.630	177.7284
34.500000	92.607	177.2827
35.000000	92.587	176.8582
35.500000	92.569	176.4342
36.000000	92.551	176.0000
36.500000	92.529	175.5630
37.000000	92.503	175.1422
37.500000	92.473	174.7512
38.200001	92.430	174.2471
38.700001	92.399	173.8990
39.500000	92.346	173.3348
40.000000	92.308	172.9807
40.599998	92.257	172.5704
41.200001	92.200	172.1998
41.799999	92.141	171.8920
42.500000	92.075	171.6361
43.099998	92.029	171.5176
43.700001	92.001	171.4774
44.400002	92.003	171.4359
45.000000	92.030	171.2729
45.500000	92.056	170.9807
46.200001	92.072	170.3628
46.799999	92.051	169.7646
47.500000	91.993	169.1513
48.200001	91.916	168.6815
48.700001	91.859	168.4124
49.400002	91.781	168.0822
50.000000	91.719	167.8065
50.799999	91.647	167.3996
51.500000	91.590	166.9944
52.200001	91.540	166.5704
53.000000	91.494	166.0828
53.799999	91.459	165.5918
54.500000	91.432	165.1911
55.200001	91.406	164.8593
56.000000	91.379	164.5779
57.000000	91.344	164.3475
58.000000	91.307	164.1929
59.000000	91.264	164.0333
60.000000	91.214	163.8173
60.799999	91.172	163.5860
61.500000	91.136	163.3408
62.200001	91.101	163.0733
63.000000	91.062	162.7752
64.000000	91.016	162.4671
65.000000	90.965	162.2920
66.000000	90.903	162.3315
67.000000	90.837	162.6335
68.000000	90.791	163.0547
69.000000	90.765	163.2286
70.000000	90.718	162.9948
71.000000	90.636	162.5573
72.000000	90.553	162.0179
73.000000	90.480	161.3416
74.000000	90.409	160.6614
75.000000	90.348	160.1804
76.199997	90.312	159.9436
77.500000	90.321	159.8757
78.800003	90.335	159.7643
80.000000	90.320	159.5978
81.199997	90.277	159.3711
82.500000	90.204	159.0538
83.800003	90.113	158.6939
85.000000	90.027	158.4003
86.199997	89.957	158.1806
87.500000	89.907	157.9431
88.500000	89.878	157.7076
90.000000	89.825	157.3160
91.199997	89.764	157.0907
92.500000	89.691	157.0040
93.800003	89.622	157.0113
95.000000	89.560	157.0333
96.199997	89.495	157.0669
97.500000	89.423	157.1243
98.800003	89.354	157.1881
100.000000	89.293	157.2357
101.500000	89.220	157.2575
103.000000	89.154	157.2217
104.400002	89.101	157.1471
106.000000	89.048	157.0783
107.500000	89.005	157.0637
109.000000	88.953	157.0495
110.599998	88.867	156.9844
112.000000	88.773	156.8679
113.800003	88.676	156.6180
115.000000	88.658	156.3876
117.199997	88.731	155.9246
118.000000	88.772	155.7801
120.599998	88.787	155.6956
122.000000	88.696	156.0692
124.099998	88.513	156.7366
125.000000	88.438	156.8978
126.500000	88.332	156.9781
128.000000	88.263	156.9309
131.500000	88.187	156.9821
132.000000	88.177	157.0253
134.000000	88.125	157.1485
136.000000	88.054	157.0767
138.000000	87.981	156.8739
140.000000	87.918	156.6732
143.000000	87.825	156.5528
145.000000	87.750	156.6316
147.500000	87.645	156.8764
150.000000	87.545	157.1566
152.500000	87.456	157.3199
155.000000	87.384	157.4307
157.500000	87.346	157.5361
160.000000	87.318	157.6011
162.500000	87.277	157.6611
165.000000	87.220	157.7563
167.500000	87.150	157.9036
170.000000	87.073	158.0898
172.500000	87.004	158.2527
175.000000	86.951	158.3572
177.500000	86.906	158.4585
180.000000	86.863	158.5977
182.500000	86.819	158.7510
185.000000	86.774	158.8747
187.500000	86.730	158.9520
190.000000	86.682	159.0172
192.500000	86.630	159.1253
195.000000	86.577	159.2878
197.500000	86.524	159.4832
200.000000	86.470	159.6970
203.000000	86.410	159.9599
206.000000	86.357	160.2047
209.000000	86.308	160.4141
212.000000	86.258	160.5963
214.000000	86.223	160.7163
218.000000	86.150	161.0001
220.000000	86.115	161.1741
224.000000	86.057	161.5587
227.000000	86.019	161.8404
230.000000	85.981	162.0835
233.000000	85.941	162.2831
236.000000	85.901	162.4626
240.000000	85.849	162.7015
243.000000	85.808	162.8878
247.000000	85.751	163.1625
250.000000	85.707	163.4029
254.000000	85.653	163.7733
258.000000	85.611	164.1584
262.000000	85.578	164.4903
265.000000	85.552	164.7024
269.000000	85.513	164.9818
272.000000	85.482	165.2122
276.000000	85.443	165.5469
280.000000	85.410	165.8954
285.000000	85.379	166.3162
290.000000	85.357	166.6536
295.000000	85.329	166.8897
300.000000	85.290	167.1176
304.000000	85.254	167.3373
307.000000	85.227	167.5182
311.000000	85.193	167.7631
315.000000	85.158	168.0056
320.000000	85.114	168.3254
325.000000	85.070	168.6841
330.000000	85.032	169.0638
335.000000	84.999	169.4348
340.000000	84.969	169.7827
345.000000	84.939	170.1145
350.000000	84.909	170.4483
355.000000	84.880	170.7914
360.000000	84.852	171.1405
365.000000	84.824	171.4908
370.000000	84.796	171.8401
375.000000	84.769	172.1899
382.000000	84.735	172.6800
387.000000	84.713	173.0286
395.000000	84.680	173.5884
400.000000	84.661	173.9385
406.000000	84.641	174.3499
412.000000	84.620	174.7475
418.000000	84.599	175.1476
425.000000	84.575	175.6447
431.000000	84.560	176.0922
437.000000	84.551	176.5320
444.000000	84.547	177.0135
450.000000	84.548	177.3834
455.000000	84.548	177.6469
462.000000	84.541	177.9621
468.000000	84.526	178.2343
475.000000	84.504	178.5942
482.000000	84.484	178.9816
487.000000	84.469	179.2611
494.000000	84.448	179.6713
500.000000	84.431	-179.9471
508.000000	84.415	-179.4282
515.000000	84.404	-178.9933
522.000000	84.392	-178.5653
530.000000	84.378	-178.0562
538.000000	84.366	-177.5272
545.000000	84.360	-177.0659
552.000000	84.356	-176.6102
560.000000	84.355	-176.1036
570.000000	84.354	-175.4971
580.000000	84.351	-174.8944
590.000000	84.347	-174.2773
600.000000	84.345	-173.6341
608.000000	84.347	-173.1133
615.000000	84.350	-172.6641
622.000000	84.351	-172.2112
630.000000	84.354	-171.6691
640.000000	84.365	-170.9606
650.000000	84.386	-170.2468
660.000000	84.419	-169.5552
670.000000	84.459	-168.9435
680.000000	84.496	-168.4159
690.000000	84.524	-167.9132
700.000000	84.547	-167.3887
710.000000	84.570	-166.8335
720.000000	84.596	-166.2676
730.000000	84.625	-165.7018
740.000000	84.654	-165.1328
750.000000	84.685	-164.5578
762.000000	84.725	-163.8595
775.000000	84.774	-163.0985
788.000000	84.828	-162.3374
800.000000	84.882	-161.6230
812.000000	84.946	-160.8990
825.000000	85.030	-160.1647
838.000000	85.119	-159.5443
850.000000	85.194	-159.0455
862.000000	85.263	-158.5588
875.000000	85.334	-158.0129
885.000000	85.389	-157.5798
900.000000	85.476	-156.9295
912.000000	85.548	-156.4085
925.000000	85.631	-155.8477
938.000000	85.719	-155.3115
950.000000	85.803	-154.8501
962.000000	85.886	-154.4138
975.000000	85.976	-153.9548
988.000000	86.065	-153.5025
1000.000000	86.148	-153.0840
1015.000000	86.257	-152.5430
1030.000000	86.377	-152.0019
1044.000000	86.501	-151.5578
1060.000000	86.646	-151.1781
1075.000000	86.774	-150.9145
1090.000000	86.894	-150.6857
1106.000000	87.017	-150.4585
1120.000000	87.122	-150.2699
1138.000000	87.252	-150.0324
1150.000000	87.338	-149.8731
1172.000000	87.497	-149.5705
1180.000000	87.556	-149.4563
1206.000000	87.764	-149.1387
1220.000000	87.879	-149.0563
1241.000000	88.040	-149.0365
1250.000000	88.105	-149.0440
1265.000000	88.207	-149.0567
1280.000000	88.305	-149.0619
1315.000000	88.527	-149.0465
1320.000000	88.559	-149.0460
1340.000000	88.683	-149.0558
1360.000000	88.802	-149.0681
1380.000000	88.916	-149.0483
1400.000000	89.034	-148.9722
1430.000000	89.232	-148.8484
1450.000000	89.373	-148.8500
1475.000000	89.545	-148.9343
1500.000000	89.711	-149.0598
1525.000000	89.873	-149.1865
1550.000000	90.039	-149.2894
1575.000000	90.220	-149.3964
1600.000000	90.416	-149.6177
1625.000000	90.612	-150.0174
1650.000000	90.795	-150.5502
1675.000000	90.964	-151.1557
1700.000000	91.121	-151.8043
1725.000000	91.265	-152.4839
1750.000000	91.398	-153.1601
1775.000000	91.524	-153.7887
1800.000000	91.656	-154.3828
1825.000000	91.797	-155.0253
1850.000000	91.938	-155.7686
1875.000000	92.070	-156.6031
1900.000000	92.191	-157.4936
1925.000000	92.302	-158.4015
1950.000000	92.409	-159.3113
1975.000000	92.515	-160.2569
2000.000000	92.619	-161.2870
2030.000000	92.728	-162.6419
2060.000000	92.816	-164.0869
2090.000000	92.879	-165.5882
2120.000000	92.916	-167.1168
2140.000000	92.924	-168.1226
2180.000000	92.912	-170.0354
2200.000000	92.896	-170.9529
2240.000000	92.842	-172.7598
2270.000000	92.773	-174.0624
2300.000000	92.678	-175.2411
2330.000000	92.563	-176.2207
2360.000000	92.442	-176.9834
2400.000000	92.289	-177.7249
2430.000000	92.186	-178.1221
2470.000000	92.072	-178.5181
2500.000000	92.004	-178.7833
2540.000000	91.926	-179.1490
2580.000000	91.857	-179.5366
2620.000000	91.789	-179.9592
2650.000000	91.734	179.7174
2690.000000	91.650	179.3387
2720.000000	91.585	179.1288
2760.000000	91.504	178.9318
2800.000000	91.432	178.7716
2850.000000	91.348	178.5875
2900.000000	91.263	178.4504
2950.000000	91.179	178.4370
3000.000000	91.115	178.5256
3040.000000	91.077	178.5946
3070.000000	91.054	178.6329
3110.000000	91.029	178.6780
3150.000000	91.011	178.7039
3200.000000	90.997	178.6593
3250.000000	90.979	178.5197
3300.000000	90.946	178.3476
3350.000000	90.900	178.2421
3400.000000	90.853	178.2333
3450.000000	90.809	178.3092
3500.000000	90.773	178.4895
3550.000000	90.756	178.7539
3600.000000	90.767	179.0129
3650.000000	90.798	179.1814
3700.000000	90.842	179.2284
3750.000000	90.891	179.1587
3820.000000	90.962	178.8358
3870.000000	91.003	178.4559
3950.000000	91.043	177.6978
4000.000000	91.051	177.1565
4060.000000	91.041	176.4888
4120.000000	91.015	175.8915
4180.000000	90.997	175.3476
4250.000000	90.993	174.5338
4310.000000	90.975	173.5064
4370.000000	90.901	172.2017
4440.000000	90.693	170.7310
4500.000000	90.417	170.0645
4550.000000	90.167	170.1540
4620.000000	89.879	171.0317
4680.000000	89.721	172.0513
4750.000000	89.620	173.2675
4820.000000	89.601	174.4520
4870.000000	89.645	175.1644
4940.000000	89.775	175.6524
5000.000000	89.902	175.3560
5080.000000	89.988	173.9559
5150.000000	89.913	172.2686
5220.000000	89.673	170.8631
5300.000000	89.249	170.4753
5380.000000	88.819	171.7856
5450.000000	88.585	173.8539
5520.000000	88.534	175.9424
5600.000000	88.624	177.5666
5700.000000	88.759	178.2453
5800.000000	88.791	178.1276
5900.000000	88.714	177.9952
6000.000000	88.578	178.2038
6080.000000	88.455	178.6268
6150.000000	88.345	179.1546
6220.000000	88.233	179.8194
6300.000000	88.106	-179.2324
6400.000000	87.955	-177.7130
6500.000000	87.831	-175.7970
6600.000000	87.751	-173.4683
6700.000000	87.743	-170.6756
6800.000000	87.863	-167.4651
6900.000000	88.158	-164.1885
7000.000000	88.618	-161.3351
7100.000000	89.194	-159.1898
7200.000000	89.853	-157.8028
7300.000000	90.586	-157.2051
7400.000000	91.381	-157.5367
7500.000000	92.214	-159.0084
7620.000000	93.208	-162.5983
7750.000000	94.167	-169.1932
7880.000000	94.828	-178.8454
8000.000000	95.013	170.2009
8120.000000	94.709	158.8680
8250.000000	93.847	148.2405
8380.000000	92.545	140.9145
8500.000000	91.115	137.5109
8620.000000	89.650	136.8124
8750.000000	88.185	138.0750
8850.000000	87.197	139.9193
9000.000000	85.955	143.4903
9120.000000	85.153	146.6441
9250.000000	84.437	150.0634
9380.000000	83.826	153.3730
9500.000000	83.314	156.3326
9620.000000	82.809	159.3411
9750.000000	82.242	163.0345
9880.000000	81.674	167.6359
10000.000000	81.223	172.8390
10150.000000	80.894	-179.7319
10300.000000	80.915	-172.0667
10440.000000	81.245	-165.3558
10600.000000	81.937	-158.7879
10750.000000	82.799	-154.2850
10900.000000	83.736	-151.8741
11060.000000	84.683	-151.7156
11200.000000	85.398	-153.4373
11380.000000	86.091	-157.8359
11500.000000	86.371	-161.8915
11720.000000	86.401	-170.5634
11800.000000	86.241	-173.6418
12060.000000	85.150	179.1224
12200.000000	84.318	177.7444
12410.000000	83.004	178.8852
12500.000000	82.480	-179.7321
12650.000000	81.707	-176.6498
12800.000000	81.079	-172.9096
13150.000000	80.160	-162.7223
13200.000000	80.089	-161.1623
13400.000000	79.954	-154.7550
13600.000000	80.086	-148.0977
13800.000000	80.566	-141.3968
14000.000000	81.441	-135.3013
14300.000000	83.322	-129.3389
14500.000000	84.722	-128.6150
14750.000000	86.366	-131.9728
15000.000000	87.693	-139.8682
15250.000000	88.561	-151.3192
15500.000000	88.933	-164.6833
15750.000000	88.883	-178.5526
16000.000000	88.518	167.4144
16250.000000	87.869	152.8722
16500.000000	86.867	137.9274
16750.000000	85.414	123.7580
17000.000000	83.468	112.1321
17250.000000	81.078	104.2733
17500.000000	78.370	100.1537
17750.000000	75.495	98.8332
18000.000000	72.572	99.3886
18250.000000	69.637	101.7084
18500.000000	66.645	106.8040
18750.000000	63.520	116.5106
19000.000000	60.225	132.5877
19250.000000	56.829	155.3562
19500.000000	53.670	-177.4380
19750.000000	51.498	-149.9726
20000.000000	50.861	-125.7944
