* Measurement data measured by REW V5.20.13
* Source: EXCL: Mic in at front panel (Pink) (Realtek(R) Audio), MICROPHONE (Master Volume), L, volume: 0.250
* Format: 256k Log Swept Sine, 1 sweep at -12.0 dBFS with no timing reference
* Dated: Mar 5, 2023 1:00:29 PM
* REW Settings:
*  C-weighting compensation: Off
*  Target level: 75.0 dB
* Note: Tinhifi C5 R
* Measurement: Tinhifi C5 R
* Smoothing: 1/12 octave
* Frequency Step: 1/48 octave
* Start Frequency: 20.000 Hz
*
* Freq(Hz)	SPL(dB)	Phase(degrees)
20.000000	99.510	-169.1847
20.299999	99.510	-169.7251
20.600000	99.509	-170.2518
20.900000	99.507	-170.7656
21.200001	99.505	-171.2689
21.400000	99.503	-171.6003
21.799999	99.498	-172.2554
22.000000	99.495	-172.5795
22.400000	99.487	-173.2207
22.700001	99.480	-173.6937
23.000000	99.471	-174.1590
23.299999	99.462	-174.6169
23.600000	99.452	-175.0681
24.000000	99.438	-175.6603
24.299999	99.427	-176.0974
24.700001	99.411	-176.6698
25.000000	99.398	-177.0904
25.400000	99.380	-177.6397
25.799999	99.363	-178.1772
26.200001	99.345	-178.7043
26.500000	99.331	-179.0928
26.900000	99.312	-179.6011
27.200001	99.298	-179.9750
27.600000	99.278	179.5352
28.000000	99.258	179.0545
28.500000	99.230	178.4712
29.000000	99.199	177.9233
29.500000	99.169	177.4241
30.000000	99.142	176.9655
30.400000	99.124	176.6076
30.700001	99.112	176.3344
31.100000	99.097	175.9591
31.500000	99.080	175.5768
32.000000	99.055	175.1077
32.500000	99.027	174.6641
33.000000	99.001	174.2451
33.500000	98.976	173.8394
34.000000	98.952	173.4395
34.500000	98.929	173.0447
35.000000	98.907	172.6529
35.500000	98.886	172.2562
36.000000	98.866	171.8462
36.500000	98.844	171.4209
37.000000	98.820	170.9857
37.500000	98.792	170.5500
38.200001	98.749	169.9559
38.700001	98.716	169.5468
39.500000	98.662	168.9086
40.000000	98.626	168.5208
40.599998	98.580	168.0825
41.200001	98.535	167.6864
41.799999	98.494	167.3199
42.500000	98.451	166.8955
43.099998	98.416	166.5244
43.700001	98.380	166.1596
44.400002	98.337	165.7558
45.000000	98.301	165.4274
45.500000	98.271	165.1616
46.200001	98.232	164.7928
46.799999	98.198	164.4712
47.500000	98.155	164.0887
48.200001	98.109	163.7129
48.700001	98.075	163.4577
49.400002	98.026	163.1202
50.000000	97.986	162.8417
50.799999	97.933	162.4774
51.500000	97.887	162.1705
52.200001	97.842	161.8819
53.000000	97.795	161.5634
53.799999	97.751	161.2366
54.500000	97.710	160.9480
55.200001	97.667	160.6743
56.000000	97.618	160.3842
57.000000	97.559	160.0294
58.000000	97.499	159.6620
59.000000	97.437	159.2911
60.000000	97.375	158.9178
60.799999	97.327	158.6119
61.500000	97.284	158.3448
62.200001	97.240	158.0882
63.000000	97.190	157.8141
64.000000	97.127	157.5015
65.000000	97.065	157.2252
66.000000	97.004	156.9797
67.000000	96.947	156.7256
68.000000	96.888	156.4254
69.000000	96.822	156.0889
70.000000	96.746	155.7559
71.000000	96.665	155.4909
72.000000	96.592	155.3173
73.000000	96.537	155.1621
74.000000	96.491	154.9661
75.000000	96.445	154.7477
76.199997	96.388	154.5004
77.500000	96.324	154.2634
78.800003	96.259	154.0383
80.000000	96.198	153.8224
81.199997	96.136	153.5832
82.500000	96.067	153.2815
83.800003	95.992	152.9464
85.000000	95.914	152.6553
86.199997	95.832	152.4231
87.500000	95.743	152.2368
88.500000	95.675	152.1245
90.000000	95.576	151.9833
91.199997	95.500	151.8814
92.500000	95.422	151.7748
93.800003	95.347	151.6746
95.000000	95.280	151.5968
96.199997	95.213	151.5414
97.500000	95.138	151.5090
98.800003	95.064	151.4896
100.000000	94.999	151.4525
101.500000	94.924	151.3554
103.000000	94.857	151.2351
104.400002	94.800	151.1524
106.000000	94.737	151.1099
107.500000	94.672	151.0868
109.000000	94.599	151.0342
110.599998	94.522	150.9257
112.000000	94.464	150.8392
113.800003	94.401	150.9668
115.000000	94.356	151.3737
117.199997	94.269	152.9551
118.000000	94.245	153.6569
120.599998	94.188	154.6788
122.000000	94.095	154.0697
124.099998	93.891	152.7303
125.000000	93.817	152.2794
126.500000	93.721	151.8612
128.000000	93.628	151.9276
131.500000	93.319	153.4740
132.000000	93.279	153.7096
134.000000	93.189	154.1022
136.000000	93.171	153.4868
138.000000	93.134	152.6844
140.000000	93.037	152.3917
143.000000	92.842	152.7847
145.000000	92.782	153.0659
147.500000	92.797	153.3782
150.000000	92.821	154.0243
152.500000	92.763	154.8424
155.000000	92.667	155.6565
157.500000	92.641	156.2045
160.000000	92.666	156.4169
162.500000	92.697	156.4876
165.000000	92.720	156.3480
167.500000	92.712	156.0241
170.000000	92.664	155.7244
172.500000	92.595	155.5560
175.000000	92.527	155.4918
177.500000	92.465	155.4700
180.000000	92.402	155.4514
182.500000	92.336	155.4334
185.000000	92.267	155.4382
187.500000	92.197	155.4801
190.000000	92.126	155.5555
192.500000	92.051	155.6491
195.000000	91.973	155.7532
197.500000	91.899	155.8766
200.000000	91.834	156.0265
203.000000	91.770	156.2441
206.000000	91.714	156.4648
209.000000	91.661	156.6073
212.000000	91.608	156.6912
214.000000	91.565	156.7933
218.000000	91.465	157.2474
220.000000	91.415	157.5452
224.000000	91.327	158.0948
227.000000	91.271	158.4508
230.000000	91.221	158.7871
233.000000	91.173	159.1009
236.000000	91.129	159.3783
240.000000	91.072	159.7023
243.000000	91.029	159.9318
247.000000	90.969	160.2434
250.000000	90.922	160.4946
254.000000	90.862	160.8717
258.000000	90.809	161.2831
262.000000	90.765	161.6724
265.000000	90.732	161.9357
269.000000	90.684	162.2714
272.000000	90.646	162.5300
276.000000	90.597	162.8978
280.000000	90.554	163.2882
285.000000	90.513	163.7712
290.000000	90.481	164.1724
295.000000	90.443	164.4773
300.000000	90.391	164.7760
304.000000	90.347	165.0485
307.000000	90.314	165.2686
311.000000	90.273	165.5698
315.000000	90.231	165.8731
320.000000	90.178	166.2702
325.000000	90.127	166.7049
330.000000	90.081	167.1594
335.000000	90.041	167.6042
340.000000	90.004	168.0255
345.000000	89.967	168.4319
350.000000	89.929	168.8413
355.000000	89.892	169.2601
360.000000	89.857	169.6848
365.000000	89.824	170.1101
370.000000	89.792	170.5345
375.000000	89.762	170.9603
382.000000	89.722	171.5604
387.000000	89.696	171.9890
395.000000	89.657	172.6695
400.000000	89.635	173.0904
406.000000	89.611	173.5866
412.000000	89.587	174.0717
418.000000	89.562	174.5607
425.000000	89.535	175.1591
431.000000	89.517	175.6889
437.000000	89.506	176.2094
444.000000	89.499	176.7861
450.000000	89.497	177.2391
455.000000	89.497	177.5715
462.000000	89.489	177.9819
468.000000	89.473	178.3360
475.000000	89.451	178.7913
482.000000	89.431	179.2727
487.000000	89.417	179.6185
494.000000	89.396	-179.8809
500.000000	89.380	-179.4242
508.000000	89.365	-178.8075
515.000000	89.356	-178.2905
522.000000	89.347	-177.7861
530.000000	89.335	-177.1964
538.000000	89.327	-176.5908
545.000000	89.323	-176.0623
552.000000	89.322	-175.5388
560.000000	89.324	-174.9561
570.000000	89.329	-174.2607
580.000000	89.331	-173.5776
590.000000	89.333	-172.8900
600.000000	89.336	-172.1879
608.000000	89.343	-171.6279
615.000000	89.349	-171.1492
622.000000	89.355	-170.6710
630.000000	89.362	-170.1057
640.000000	89.377	-169.3795
650.000000	89.401	-168.6620
660.000000	89.434	-167.9802
670.000000	89.472	-167.3899
680.000000	89.504	-166.8927
690.000000	89.522	-166.4231
700.000000	89.531	-165.9266
710.000000	89.536	-165.3884
720.000000	89.540	-164.8248
730.000000	89.543	-164.2404
740.000000	89.543	-163.6240
750.000000	89.542	-162.9655
762.000000	89.543	-162.1118
775.000000	89.550	-161.1098
788.000000	89.567	-160.0382
800.000000	89.594	-158.9877
812.000000	89.639	-157.8954
825.000000	89.712	-156.7427
838.000000	89.799	-155.6992
850.000000	89.880	-154.8177
862.000000	89.960	-153.9651
875.000000	90.050	-153.0464
885.000000	90.123	-152.3441
900.000000	90.240	-151.3204
912.000000	90.338	-150.5271
925.000000	90.451	-149.6962
938.000000	90.571	-148.9126
950.000000	90.684	-148.2411
962.000000	90.797	-147.6111
975.000000	90.920	-146.9592
988.000000	91.042	-146.3300
1000.000000	91.156	-145.7614
1015.000000	91.303	-145.0501
1030.000000	91.462	-144.3564
1044.000000	91.621	-143.7840
1060.000000	91.805	-143.2729
1075.000000	91.970	-142.9006
1090.000000	92.126	-142.5762
1106.000000	92.287	-142.2598
1120.000000	92.423	-142.0021
1138.000000	92.594	-141.6871
1150.000000	92.706	-141.4823
1172.000000	92.912	-141.1072
1180.000000	92.988	-140.9698
1206.000000	93.248	-140.5872
1220.000000	93.390	-140.4760
1241.000000	93.591	-140.4204
1250.000000	93.671	-140.4145
1265.000000	93.800	-140.4073
1280.000000	93.924	-140.3949
1315.000000	94.205	-140.3412
1320.000000	94.245	-140.3350
1340.000000	94.402	-140.3212
1360.000000	94.553	-140.3094
1380.000000	94.701	-140.2675
1400.000000	94.852	-140.1745
1430.000000	95.103	-140.0432
1450.000000	95.277	-140.0570
1475.000000	95.489	-140.1738
1500.000000	95.692	-140.3416
1525.000000	95.889	-140.5168
1550.000000	96.087	-140.6714
1575.000000	96.295	-140.8211
1600.000000	96.517	-141.0621
1625.000000	96.738	-141.4534
1650.000000	96.949	-141.9548
1675.000000	97.151	-142.5193
1700.000000	97.346	-143.1351
1725.000000	97.532	-143.8067
1750.000000	97.706	-144.5096
1775.000000	97.873	-145.1991
1800.000000	98.042	-145.8777
1825.000000	98.216	-146.6130
1850.000000	98.385	-147.4448
1875.000000	98.544	-148.3569
1900.000000	98.690	-149.3126
1925.000000	98.825	-150.2751
1950.000000	98.956	-151.2315
1975.000000	99.087	-152.2177
2000.000000	99.213	-153.2805
2030.000000	99.348	-154.6571
2060.000000	99.461	-156.0954
2090.000000	99.551	-157.5553
2120.000000	99.618	-159.0069
2140.000000	99.649	-159.9433
2180.000000	99.693	-161.6838
2200.000000	99.711	-162.5041
2240.000000	99.739	-164.1179
2270.000000	99.746	-165.3032
2300.000000	99.738	-166.4222
2330.000000	99.722	-167.4374
2360.000000	99.706	-168.3630
2400.000000	99.686	-169.5355
2430.000000	99.667	-170.3838
2470.000000	99.633	-171.4451
2500.000000	99.601	-172.1677
2540.000000	99.553	-172.9817
2580.000000	99.514	-173.5996
2620.000000	99.499	-174.1070
2650.000000	99.503	-174.4812
2690.000000	99.522	-175.0029
2720.000000	99.544	-175.4069
2760.000000	99.587	-175.9921
2800.000000	99.641	-176.6879
2850.000000	99.704	-177.7249
2900.000000	99.749	-178.8639
2950.000000	99.777	-179.9589
3000.000000	99.812	179.0211
3040.000000	99.850	178.1899
3070.000000	99.884	177.5337
3110.000000	99.935	176.6031
3150.000000	99.993	175.5732
3200.000000	100.068	174.0751
3250.000000	100.126	172.3265
3300.000000	100.153	170.3919
3350.000000	100.146	168.3773
3400.000000	100.112	166.3173
3450.000000	100.049	164.2042
3500.000000	99.956	162.0785
3550.000000	99.835	159.9691
3600.000000	99.690	157.8533
3650.000000	99.514	155.7139
3700.000000	99.300	153.5894
3750.000000	99.043	151.5606
3820.000000	98.619	148.9829
3870.000000	98.271	147.4032
3950.000000	97.660	145.4858
4000.000000	97.262	144.6583
4060.000000	96.780	143.9776
4120.000000	96.290	143.6267
4180.000000	95.799	143.6180
4250.000000	95.228	144.0423
4310.000000	94.749	144.8087
4370.000000	94.294	145.9269
4440.000000	93.809	147.5546
4500.000000	93.432	149.1390
4550.000000	93.142	150.5671
4620.000000	92.772	152.7060
4680.000000	92.482	154.6821
4750.000000	92.183	157.1747
4820.000000	91.937	159.8088
4870.000000	91.794	161.7232
4940.000000	91.636	164.4031
5000.000000	91.536	166.6748
5080.000000	91.443	169.6765
5150.000000	91.403	172.3081
5220.000000	91.408	174.9120
5300.000000	91.470	177.7624
5380.000000	91.585	-179.6070
5450.000000	91.717	-177.5201
5520.000000	91.872	-175.6137
5600.000000	92.076	-173.6423
5700.000000	92.371	-171.5509
5800.000000	92.691	-169.9678
5900.000000	93.011	-168.8997
6000.000000	93.319	-168.2447
6080.000000	93.556	-167.9846
6150.000000	93.753	-167.9525
6220.000000	93.937	-168.1019
6300.000000	94.123	-168.4585
6400.000000	94.315	-169.0836
6500.000000	94.467	-169.8132
6600.000000	94.581	-170.5840
6700.000000	94.658	-171.3081
6800.000000	94.707	-171.8515
6900.000000	94.751	-172.1235
7000.000000	94.818	-172.1287
7100.000000	94.934	-171.9305
7200.000000	95.127	-171.6294
7300.000000	95.424	-171.4166
7400.000000	95.839	-171.6036
7500.000000	96.359	-172.5710
7620.000000	97.064	-175.3207
7750.000000	97.796	179.0135
7880.000000	98.277	170.1515
8000.000000	98.308	159.8480
8120.000000	97.846	149.2620
8250.000000	96.816	139.6714
8380.000000	95.371	133.4584
8500.000000	93.834	130.9344
8620.000000	92.263	131.0186
8750.000000	90.660	133.2977
8850.000000	89.559	136.1796
9000.000000	88.189	141.7684
9120.000000	87.382	146.8739
9250.000000	86.838	152.5406
9380.000000	86.671	157.7487
9500.000000	86.851	161.3423
9620.000000	87.259	162.7422
9750.000000	87.721	160.7314
9880.000000	87.875	155.1182
10000.000000	87.515	148.6813
10150.000000	86.345	143.0460
10300.000000	84.673	142.2020
10440.000000	83.050	144.5365
10600.000000	81.400	148.7915
10750.000000	80.076	153.4243
10900.000000	78.910	158.5015
11060.000000	77.800	164.3442
11200.000000	76.931	169.6705
11380.000000	75.931	176.5800
11500.000000	75.311	-178.8158
11720.000000	74.197	-170.1281
11800.000000	73.783	-166.7226
12060.000000	72.424	-153.6912
12200.000000	71.784	-145.1103
12410.000000	71.224	-130.6812
12500.000000	71.193	-124.3380
12650.000000	71.429	-114.2130
12800.000000	71.941	-105.2103
13150.000000	73.563	-89.9402
13200.000000	73.801	-88.3677
13400.000000	74.727	-83.2377
13600.000000	75.613	-79.5471
13800.000000	76.486	-77.0038
14000.000000	77.357	-75.6365
14300.000000	78.608	-76.1787
14500.000000	79.340	-78.4414
14750.000000	80.058	-83.3664
15000.000000	80.462	-90.1981
15250.000000	80.479	-97.7125
15500.000000	80.199	-104.1719
15750.000000	79.935	-109.0152
16000.000000	80.035	-113.7811
16250.000000	80.560	-121.4233
16500.000000	81.182	-134.8308
16750.000000	81.422	-155.0515
17000.000000	80.901	-179.8189
17250.000000	79.451	155.8890
17500.000000	77.131	136.6724
17750.000000	74.131	124.2625
18000.000000	70.676	118.1517
18250.000000	66.960	117.6053
18500.000000	63.139	122.9588
18750.000000	59.402	134.5653
19000.000000	56.221	149.1779
19250.000000	54.238	160.4926
19500.000000	53.204	166.8941
19750.000000	52.431	171.7448
20000.000000	51.717	177.5386
