* Measurement data measured by REW V5.20.13
* Source: EXCL: Mic in at front panel (Pink) (Realtek(R) Audio), MICROPHONE (Master Volume), L, volume: 0.250
* Format: 256k Log Swept Sine, 1 sweep at -12.0 dBFS with no timing reference
* Dated: Jan 27, 2023 1:34:37 PM
* REW Settings:
*  C-weighting compensation: Off
*  Target level: 75.0 dB
* Note: TKZK  Ouranos R
* Measurement: TKZK  Ouranos R
* Smoothing: 1/12 octave
* Frequency Step: 1/48 octave
* Start Frequency: 20.000 Hz
*
* Freq(Hz)	SPL(dB)	Phase(degrees)
20.000000	99.252	-141.6318
20.299999	99.289	-142.3611
20.600000	99.323	-143.0714
20.900000	99.355	-143.7579
21.200001	99.385	-144.4201
21.400000	99.405	-144.8512
21.799999	99.446	-145.6964
22.000000	99.466	-146.1139
22.400000	99.504	-146.9422
22.700001	99.530	-147.5545
23.000000	99.555	-148.1545
23.299999	99.579	-148.7403
23.600000	99.602	-149.3141
24.000000	99.633	-150.0682
24.299999	99.655	-150.6318
24.700001	99.683	-151.3822
25.000000	99.700	-151.9385
25.400000	99.719	-152.6587
25.799999	99.736	-153.3426
26.200001	99.753	-153.9918
26.500000	99.767	-154.4654
26.900000	99.787	-155.0937
27.200001	99.802	-155.5697
27.600000	99.820	-156.2108
28.000000	99.833	-156.8478
28.500000	99.844	-157.6126
29.000000	99.852	-158.3232
29.500000	99.861	-158.9828
30.000000	99.874	-159.6147
30.400000	99.887	-160.1187
30.700001	99.898	-160.5029
31.100000	99.912	-161.0279
31.500000	99.924	-161.5662
32.000000	99.935	-162.2487
32.500000	99.940	-162.9262
33.000000	99.940	-163.5829
33.500000	99.936	-164.2087
34.000000	99.929	-164.7968
34.500000	99.922	-165.3443
35.000000	99.918	-165.8546
35.500000	99.919	-166.3409
36.000000	99.925	-166.8230
36.500000	99.937	-167.3227
37.000000	99.951	-167.8590
37.500000	99.964	-168.4412
38.200001	99.970	-169.3159
38.700001	99.961	-169.9420
39.500000	99.924	-170.8297
40.000000	99.896	-171.2790
40.599998	99.864	-171.7265
41.200001	99.838	-172.1134
41.799999	99.817	-172.4615
42.500000	99.804	-172.8369
43.099998	99.805	-173.1788
43.700001	99.813	-173.6000
44.400002	99.819	-174.1987
45.000000	99.815	-174.7364
45.500000	99.810	-175.1565
46.200001	99.811	-175.7204
46.799999	99.820	-176.2472
47.500000	99.824	-176.9331
48.200001	99.808	-177.5829
48.700001	99.790	-177.9518
49.400002	99.770	-178.3328
50.000000	99.763	-178.6207
50.799999	99.753	-179.0632
51.500000	99.725	-179.4695
52.200001	99.681	-179.8041
53.000000	99.626	179.8887
53.799999	99.571	179.5663
54.500000	99.517	179.2728
55.200001	99.466	179.0054
56.000000	99.425	178.6905
57.000000	99.405	178.1507
58.000000	99.400	177.4058
59.000000	99.389	176.5182
60.000000	99.355	175.7003
60.799999	99.324	175.2295
61.500000	99.307	174.9249
62.200001	99.302	174.6514
63.000000	99.305	174.3203
64.000000	99.313	173.8224
65.000000	99.308	173.2082
66.000000	99.272	172.6027
67.000000	99.219	172.1693
68.000000	99.171	171.8763
69.000000	99.129	171.6092
70.000000	99.085	171.3392
71.000000	99.037	171.0359
72.000000	98.979	170.6675
73.000000	98.906	170.3102
74.000000	98.835	170.0425
75.000000	98.785	169.8067
76.199997	98.748	169.4608
77.500000	98.721	169.0706
78.800003	98.709	168.6967
80.000000	98.702	168.2863
81.199997	98.679	167.8171
82.500000	98.634	167.3184
83.800003	98.578	166.8401
85.000000	98.518	166.4005
86.199997	98.449	165.9897
87.500000	98.368	165.6232
88.500000	98.308	165.4047
90.000000	98.231	165.1064
91.199997	98.176	164.8412
92.500000	98.114	164.5591
93.800003	98.048	164.3584
95.000000	97.985	164.2878
96.199997	97.921	164.3276
97.500000	97.857	164.4489
98.800003	97.797	164.5254
100.000000	97.736	164.4729
101.500000	97.643	164.3187
103.000000	97.545	164.2331
104.400002	97.473	164.2927
106.000000	97.433	164.4838
107.500000	97.439	164.6218
109.000000	97.468	164.5087
110.599998	97.497	164.0240
112.000000	97.514	163.4219
113.800003	97.554	162.6960
115.000000	97.612	162.3173
117.199997	97.760	161.7728
118.000000	97.806	161.5627
120.599998	97.758	160.8412
122.000000	97.594	160.8036
124.099998	97.330	161.0879
125.000000	97.238	161.1453
126.500000	97.120	161.0740
128.000000	97.040	160.8711
131.500000	96.956	160.3660
132.000000	96.948	160.3015
134.000000	96.912	160.0652
136.000000	96.864	159.8734
138.000000	96.805	159.7036
140.000000	96.734	159.5623
143.000000	96.624	159.3422
145.000000	96.559	159.0896
147.500000	96.490	158.7415
150.000000	96.427	158.5234
152.500000	96.340	158.5772
155.000000	96.237	158.8636
157.500000	96.138	159.1057
160.000000	96.050	159.1988
162.500000	95.972	159.1734
165.000000	95.892	159.0936
167.500000	95.809	159.0027
170.000000	95.732	158.9238
172.500000	95.663	158.8883
175.000000	95.601	158.8995
177.500000	95.540	158.9298
180.000000	95.478	158.9684
182.500000	95.415	159.0218
185.000000	95.350	159.1092
187.500000	95.284	159.2443
190.000000	95.215	159.4184
192.500000	95.146	159.5948
195.000000	95.084	159.6820
197.500000	95.027	159.6225
200.000000	94.970	159.5123
203.000000	94.902	159.4846
206.000000	94.839	159.5847
209.000000	94.778	159.7014
212.000000	94.713	159.7719
214.000000	94.664	159.8047
218.000000	94.560	159.9454
220.000000	94.512	160.1041
224.000000	94.426	160.5876
227.000000	94.369	160.9562
230.000000	94.314	161.2271
233.000000	94.263	161.4163
236.000000	94.223	161.5742
240.000000	94.190	161.7654
243.000000	94.173	161.8990
247.000000	94.142	162.0907
250.000000	94.108	162.2521
254.000000	94.053	162.4840
258.000000	93.998	162.7056
262.000000	93.943	162.8879
265.000000	93.897	163.0038
269.000000	93.832	163.1497
272.000000	93.786	163.2668
276.000000	93.729	163.4625
280.000000	93.679	163.7159
285.000000	93.625	164.0698
290.000000	93.577	164.3486
295.000000	93.523	164.4829
300.000000	93.457	164.5980
304.000000	93.401	164.7511
307.000000	93.359	164.8956
311.000000	93.306	165.1051
315.000000	93.252	165.3230
320.000000	93.184	165.6183
325.000000	93.115	165.9525
330.000000	93.053	166.3098
335.000000	92.996	166.6668
340.000000	92.942	167.0155
345.000000	92.888	167.3605
350.000000	92.834	167.7079
355.000000	92.780	168.0590
360.000000	92.728	168.4161
365.000000	92.677	168.7844
370.000000	92.627	169.1656
375.000000	92.578	169.5512
382.000000	92.510	170.1070
387.000000	92.465	170.5240
395.000000	92.405	171.1361
400.000000	92.364	171.4816
406.000000	92.306	171.9379
412.000000	92.247	172.4724
418.000000	92.194	173.0538
425.000000	92.143	173.7337
431.000000	92.109	174.2909
437.000000	92.084	174.8214
444.000000	92.064	175.4347
450.000000	92.051	175.9675
455.000000	92.038	176.3944
462.000000	92.007	176.9406
468.000000	91.972	177.3988
475.000000	91.932	177.9899
482.000000	91.895	178.6313
487.000000	91.870	179.0964
494.000000	91.839	179.7741
500.000000	91.817	-179.6065
508.000000	91.798	-178.7579
515.000000	91.788	-178.0235
522.000000	91.781	-177.2921
530.000000	91.779	-176.4375
538.000000	91.786	-175.5697
545.000000	91.801	-174.8204
552.000000	91.823	-174.0891
560.000000	91.857	-173.2919
570.000000	91.907	-172.3723
580.000000	91.962	-171.5183
590.000000	92.021	-170.7219
600.000000	92.085	-169.9803
608.000000	92.139	-169.4365
615.000000	92.186	-169.0043
622.000000	92.230	-168.5999
630.000000	92.278	-168.1477
640.000000	92.339	-167.5959
650.000000	92.402	-167.0763
660.000000	92.467	-166.6015
670.000000	92.532	-166.2149
680.000000	92.584	-165.9094
690.000000	92.619	-165.6066
700.000000	92.642	-165.2309
710.000000	92.664	-164.7404
720.000000	92.698	-164.1464
730.000000	92.758	-163.5306
740.000000	92.841	-163.0532
750.000000	92.922	-162.8183
762.000000	92.978	-162.7135
775.000000	92.995	-162.4914
788.000000	93.000	-162.0289
800.000000	93.015	-161.4435
812.000000	93.050	-160.7880
825.000000	93.109	-160.1043
838.000000	93.177	-159.5237
850.000000	93.235	-159.0544
862.000000	93.288	-158.5920
875.000000	93.343	-158.0668
885.000000	93.387	-157.6450
900.000000	93.458	-157.0052
912.000000	93.518	-156.4889
925.000000	93.589	-155.9306
938.000000	93.667	-155.3940
950.000000	93.741	-154.9302
962.000000	93.816	-154.4910
975.000000	93.897	-154.0294
988.000000	93.979	-153.5757
1000.000000	94.055	-153.1574
1015.000000	94.155	-152.6200
1030.000000	94.268	-152.0870
1044.000000	94.385	-151.6542
1060.000000	94.522	-151.2923
1075.000000	94.643	-151.0514
1090.000000	94.756	-150.8513
1106.000000	94.870	-150.6604
1120.000000	94.965	-150.5069
1138.000000	95.084	-150.3177
1150.000000	95.160	-150.1918
1172.000000	95.300	-149.9517
1180.000000	95.353	-149.8606
1206.000000	95.534	-149.6181
1220.000000	95.633	-149.5755
1241.000000	95.770	-149.6128
1250.000000	95.822	-149.6432
1265.000000	95.904	-149.6916
1280.000000	95.980	-149.7281
1315.000000	96.147	-149.7606
1320.000000	96.170	-149.7633
1340.000000	96.259	-149.7769
1360.000000	96.343	-149.7781
1380.000000	96.421	-149.7343
1400.000000	96.501	-149.6234
1430.000000	96.643	-149.4326
1450.000000	96.744	-149.3843
1475.000000	96.863	-149.3977
1500.000000	96.972	-149.4327
1525.000000	97.073	-149.4453
1550.000000	97.174	-149.4064
1575.000000	97.283	-149.3293
1600.000000	97.403	-149.3048
1625.000000	97.521	-149.3839
1650.000000	97.628	-149.5191
1675.000000	97.725	-149.6569
1700.000000	97.816	-149.7803
1725.000000	97.900	-149.8920
1750.000000	97.977	-149.9685
1775.000000	98.051	-149.9674
1800.000000	98.132	-149.8928
1825.000000	98.225	-149.8133
1850.000000	98.321	-149.7690
1875.000000	98.416	-149.7455
1900.000000	98.509	-149.7090
1925.000000	98.603	-149.6275
1950.000000	98.706	-149.4953
1975.000000	98.824	-149.3584
2000.000000	98.954	-149.2761
2030.000000	99.116	-149.2716
2060.000000	99.282	-149.3492
2090.000000	99.450	-149.4988
2120.000000	99.617	-149.7203
2140.000000	99.727	-149.8948
2180.000000	99.953	-150.2810
2200.000000	100.072	-150.5186
2240.000000	100.313	-151.1691
2270.000000	100.486	-151.8126
2300.000000	100.646	-152.5444
2330.000000	100.797	-153.3229
2360.000000	100.944	-154.1558
2400.000000	101.128	-155.4132
2430.000000	101.250	-156.4690
2470.000000	101.382	-157.9767
2500.000000	101.456	-159.1420
2540.000000	101.521	-160.6570
2580.000000	101.560	-162.0622
2620.000000	101.583	-163.3854
2650.000000	101.588	-164.3359
2690.000000	101.574	-165.5027
2720.000000	101.555	-166.2652
2760.000000	101.528	-167.1374
2800.000000	101.504	-167.8923
2850.000000	101.480	-168.7056
2900.000000	101.466	-169.3865
2950.000000	101.473	-169.9555
3000.000000	101.512	-170.5508
3040.000000	101.556	-171.1677
3070.000000	101.585	-171.7184
3110.000000	101.612	-172.5182
3150.000000	101.626	-173.3462
3200.000000	101.628	-174.3941
3250.000000	101.611	-175.4360
3300.000000	101.573	-176.4265
3350.000000	101.519	-177.2960
3400.000000	101.461	-178.0373
3450.000000	101.401	-178.6778
3500.000000	101.342	-179.2012
3550.000000	101.293	-179.6145
3600.000000	101.261	-179.9874
3650.000000	101.241	179.6108
3700.000000	101.225	179.1660
3750.000000	101.208	178.7086
3820.000000	101.186	178.0580
3870.000000	101.169	177.6010
3950.000000	101.149	176.9396
4000.000000	101.150	176.5208
4060.000000	101.162	175.9279
4120.000000	101.175	175.2217
4180.000000	101.183	174.4216
4250.000000	101.181	173.3877
4310.000000	101.167	172.4661
4370.000000	101.151	171.5198
4440.000000	101.130	170.3106
4500.000000	101.100	169.1469
4550.000000	101.060	168.1002
4620.000000	100.975	166.5546
4680.000000	100.870	165.2259
4750.000000	100.714	163.7627
4820.000000	100.534	162.4048
4870.000000	100.392	161.4848
4940.000000	100.174	160.2706
5000.000000	99.966	159.3132
5080.000000	99.656	158.2241
5150.000000	99.362	157.5240
5220.000000	99.059	157.0652
5300.000000	98.712	156.7837
5380.000000	98.367	156.7140
5450.000000	98.062	156.8203
5520.000000	97.753	157.1223
5600.000000	97.406	157.7367
5700.000000	96.995	158.8622
5800.000000	96.619	160.2964
5900.000000	96.277	161.9922
6000.000000	95.977	163.9334
6080.000000	95.770	165.6063
6150.000000	95.613	167.1262
6220.000000	95.474	168.6928
6300.000000	95.336	170.5597
6400.000000	95.200	173.0458
6500.000000	95.118	175.6852
6600.000000	95.102	178.3960
6700.000000	95.153	-178.8992
6800.000000	95.274	-176.2404
6900.000000	95.471	-173.6975
7000.000000	95.747	-171.3925
7100.000000	96.094	-169.4343
7200.000000	96.502	-167.8773
7300.000000	96.971	-166.7783
7400.000000	97.497	-166.2474
7500.000000	98.070	-166.4242
7620.000000	98.794	-167.7766
7750.000000	99.572	-171.0074
7880.000000	100.234	-176.4948
8000.000000	100.615	176.4392
8120.000000	100.676	168.0537
8250.000000	100.323	158.7011
8380.000000	99.542	150.5422
8500.000000	98.510	145.0578
8620.000000	97.283	141.8651
8750.000000	95.850	140.8366
8850.000000	94.734	141.5634
9000.000000	93.117	144.7853
9120.000000	91.924	148.9529
9250.000000	90.775	154.8860
9380.000000	89.832	162.1556
9500.000000	89.221	169.7958
9620.000000	88.938	177.8891
9750.000000	89.049	-173.5408
9880.000000	89.537	-166.0752
10000.000000	90.185	-160.8564
10150.000000	91.032	-156.9664
10300.000000	91.738	-155.5844
10440.000000	92.194	-155.6470
10600.000000	92.496	-156.1085
10750.000000	92.645	-156.1353
10900.000000	92.755	-155.4907
11060.000000	92.924	-154.1257
11200.000000	93.177	-152.6046
11380.000000	93.700	-150.7135
11500.000000	94.181	-149.8340
11720.000000	95.289	-150.0356
11800.000000	95.728	-150.9742
12060.000000	97.023	-158.3663
12200.000000	97.465	-165.2073
12410.000000	97.564	-177.8196
12500.000000	97.372	176.6660
12650.000000	96.752	168.4309
12800.000000	95.821	162.2073
13150.000000	93.015	156.5576
13200.000000	92.597	156.6094
13400.000000	91.000	158.3072
13600.000000	89.601	161.7264
13800.000000	88.449	166.2052
14000.000000	87.553	171.3170
14300.000000	86.689	179.5288
14500.000000	86.446	-175.0528
14750.000000	86.531	-169.0534
15000.000000	87.000	-164.8673
15250.000000	87.714	-163.5469
15500.000000	88.453	-166.1285
15750.000000	88.923	-173.0723
16000.000000	88.850	176.8271
16250.000000	88.099	166.5276
16500.000000	86.720	159.0517
16750.000000	84.902	155.7875
17000.000000	82.887	156.4455
17250.000000	80.894	159.9814
17500.000000	79.088	165.2930
17750.000000	77.564	171.4592
18000.000000	76.338	177.7998
18250.000000	75.370	-176.0638
18500.000000	74.602	-170.2253
18750.000000	74.018	-164.8087
19000.000000	73.627	-160.3954
19250.000000	73.354	-157.7891
19500.000000	73.020	-157.2272
19750.000000	72.435	-157.9036
20000.000000	71.482	-158.1753
