* Measurement data measured by REW V5.20.13
* Source: EXCL: Mic in at front panel (Pink) (Realtek(R) Audio), MICROPHONE (Master Volume), L, volume: 0.250
* Format: 256k Log Swept Sine, 1 sweep at -12.0 dBFS with no timing reference
* Dated: Nov 12, 2022 1:01:30 AM
* REW Settings:
*  C-weighting compensation: Off
*  Target level: 75.0 dB
* Note: TRI iOne MP L
* Measurement: TRI iOne MP L
* Smoothing: 1/12 octave
* Frequency Step: 1/48 octave
* Start Frequency: 20.000 Hz
*
* Freq(Hz)	SPL(dB)	Phase(degrees)
20.000000	102.807	14.7861
20.299999	102.812	14.1728
20.600000	102.817	13.5626
20.900000	102.821	12.9537
21.200001	102.822	12.3500
21.400000	102.821	11.9550
21.799999	102.817	11.1888
22.000000	102.814	10.8193
22.400000	102.809	10.1053
22.700001	102.806	9.5840
23.000000	102.803	9.0668
23.299999	102.801	8.5497
23.600000	102.798	8.0328
24.000000	102.791	7.3488
24.299999	102.785	6.8452
24.700001	102.775	6.1907
25.000000	102.767	5.7126
25.400000	102.757	5.0891
25.799999	102.746	4.4771
26.200001	102.734	3.8754
26.500000	102.725	3.4327
26.900000	102.711	2.8569
27.200001	102.701	2.4371
27.600000	102.688	1.8920
28.000000	102.674	1.3599
28.500000	102.659	0.7050
29.000000	102.643	0.0569
29.500000	102.625	-0.5824
30.000000	102.606	-1.2087
30.400000	102.590	-1.6996
30.700001	102.578	-2.0630
31.100000	102.562	-2.5432
31.500000	102.546	-3.0200
32.000000	102.524	-3.6110
32.500000	102.500	-4.1931
33.000000	102.476	-4.7628
33.500000	102.450	-5.3192
34.000000	102.424	-5.8632
34.500000	102.398	-6.3964
35.000000	102.371	-6.9193
35.500000	102.344	-7.4320
36.000000	102.316	-7.9342
36.500000	102.288	-8.4252
37.000000	102.259	-8.9039
37.500000	102.230	-9.3707
38.200001	102.190	-10.0073
38.700001	102.160	-10.4526
39.500000	102.113	-11.1488
40.000000	102.082	-11.5731
40.599998	102.045	-12.0726
41.200001	102.008	-12.5635
41.799999	101.970	-13.0438
42.500000	101.924	-13.5851
43.099998	101.885	-14.0329
43.700001	101.847	-14.4719
44.400002	101.803	-14.9791
45.000000	101.765	-15.4088
45.500000	101.733	-15.7614
46.200001	101.687	-16.2461
46.799999	101.648	-16.6540
47.500000	101.601	-17.1203
48.200001	101.554	-17.5758
48.700001	101.520	-17.8950
49.400002	101.472	-18.3312
50.000000	101.429	-18.6888
50.799999	101.373	-19.1370
51.500000	101.327	-19.5128
52.200001	101.281	-19.8856
53.000000	101.229	-20.3061
53.799999	101.175	-20.7073
54.500000	101.129	-21.0390
55.200001	101.085	-21.3569
56.000000	101.037	-21.7130
57.000000	100.981	-22.1649
58.000000	100.927	-22.6360
59.000000	100.871	-23.1234
60.000000	100.811	-23.6112
60.799999	100.761	-23.9893
61.500000	100.717	-24.3110
62.200001	100.673	-24.6279
63.000000	100.622	-24.9854
64.000000	100.554	-25.4188
65.000000	100.485	-25.8265
66.000000	100.415	-26.2054
67.000000	100.346	-26.5562
68.000000	100.279	-26.8867
69.000000	100.215	-27.2130
70.000000	100.151	-27.5348
71.000000	100.089	-27.8389
72.000000	100.028	-28.1246
73.000000	99.970	-28.4014
74.000000	99.914	-28.6740
75.000000	99.859	-28.9430
76.199997	99.794	-29.2650
77.500000	99.726	-29.6177
78.800003	99.660	-29.9801
80.000000	99.603	-30.3323
81.199997	99.545	-30.7046
82.500000	99.480	-31.1245
83.800003	99.407	-31.5461
85.000000	99.332	-31.9149
86.199997	99.250	-32.2450
87.500000	99.158	-32.5522
88.500000	99.090	-32.7579
90.000000	98.994	-33.0400
91.199997	98.923	-33.2626
92.500000	98.849	-33.5085
93.800003	98.776	-33.7548
95.000000	98.710	-33.9806
96.199997	98.644	-34.2045
97.500000	98.573	-34.4386
98.800003	98.500	-34.6541
100.000000	98.429	-34.8277
101.500000	98.337	-35.0161
103.000000	98.245	-35.2007
104.400002	98.163	-35.3894
106.000000	98.077	-35.6129
107.500000	98.002	-35.7968
109.000000	97.928	-35.9430
110.599998	97.841	-36.0951
112.000000	97.760	-36.2778
113.800003	97.662	-36.6165
115.000000	97.612	-36.8818
117.199997	97.560	-37.3597
118.000000	97.541	-37.5263
120.599998	97.367	-37.8873
122.000000	97.195	-37.7839
124.099998	96.960	-37.4373
125.000000	96.898	-37.3771
126.500000	96.851	-37.4608
128.000000	96.847	-37.6404
131.500000	96.821	-37.5692
132.000000	96.805	-37.5016
134.000000	96.720	-37.2694
136.000000	96.631	-37.2698
138.000000	96.555	-37.4518
140.000000	96.480	-37.5503
143.000000	96.340	-37.4362
145.000000	96.245	-37.4617
147.500000	96.147	-37.8219
150.000000	96.047	-38.1913
152.500000	95.937	-38.2142
155.000000	95.829	-38.0583
157.500000	95.733	-37.9448
160.000000	95.646	-37.9030
162.500000	95.558	-37.9062
165.000000	95.467	-37.9633
167.500000	95.375	-38.0349
170.000000	95.284	-38.0395
172.500000	95.196	-37.9667
175.000000	95.108	-37.8671
177.500000	95.024	-37.7761
180.000000	94.945	-37.6934
182.500000	94.868	-37.6171
185.000000	94.792	-37.5584
187.500000	94.714	-37.5113
190.000000	94.633	-37.4523
192.500000	94.551	-37.3677
195.000000	94.471	-37.2460
197.500000	94.393	-37.0828
200.000000	94.317	-36.9121
203.000000	94.227	-36.7678
206.000000	94.139	-36.6885
209.000000	94.054	-36.6240
212.000000	93.968	-36.5439
214.000000	93.908	-36.4753
218.000000	93.786	-36.2783
220.000000	93.728	-36.1439
224.000000	93.624	-35.8379
227.000000	93.551	-35.6053
230.000000	93.479	-35.3806
233.000000	93.406	-35.1714
236.000000	93.335	-34.9860
240.000000	93.243	-34.7645
243.000000	93.174	-34.5937
247.000000	93.079	-34.3244
250.000000	93.008	-34.0808
254.000000	92.920	-33.7114
258.000000	92.846	-33.3377
262.000000	92.782	-33.0372
265.000000	92.732	-32.8568
269.000000	92.660	-32.6252
272.000000	92.605	-32.4376
276.000000	92.533	-32.1617
280.000000	92.465	-31.8651
285.000000	92.391	-31.5012
290.000000	92.324	-31.2083
295.000000	92.250	-30.9993
300.000000	92.164	-30.7869
304.000000	92.092	-30.5767
307.000000	92.039	-30.4005
311.000000	91.971	-30.1560
315.000000	91.903	-29.9086
320.000000	91.817	-29.5823
325.000000	91.732	-29.2187
330.000000	91.655	-28.8314
335.000000	91.583	-28.4479
340.000000	91.514	-28.0816
345.000000	91.446	-27.7242
350.000000	91.377	-27.3604
355.000000	91.309	-26.9869
360.000000	91.244	-26.6078
365.000000	91.181	-26.2250
370.000000	91.119	-25.8381
375.000000	91.060	-25.4473
382.000000	90.979	-24.8955
387.000000	90.924	-24.5001
395.000000	90.839	-23.8654
400.000000	90.789	-23.4681
406.000000	90.732	-22.9986
412.000000	90.675	-22.5399
418.000000	90.619	-22.0753
425.000000	90.554	-21.5010
431.000000	90.505	-20.9887
437.000000	90.463	-20.4844
444.000000	90.420	-19.9237
450.000000	90.389	-19.4823
455.000000	90.364	-19.1589
462.000000	90.322	-18.7598
468.000000	90.277	-18.4137
475.000000	90.222	-17.9653
482.000000	90.168	-17.4888
487.000000	90.131	-17.1458
494.000000	90.077	-16.6467
500.000000	90.034	-16.1884
508.000000	89.983	-15.5663
515.000000	89.943	-15.0421
522.000000	89.902	-14.5272
530.000000	89.855	-13.9208
538.000000	89.812	-13.2937
545.000000	89.779	-12.7435
552.000000	89.749	-12.1956
560.000000	89.718	-11.5824
570.000000	89.681	-10.8447
580.000000	89.644	-10.1119
590.000000	89.606	-9.3646
600.000000	89.571	-8.5933
608.000000	89.548	-7.9720
615.000000	89.529	-7.4349
622.000000	89.510	-6.8930
630.000000	89.489	-6.2484
640.000000	89.472	-5.4126
650.000000	89.465	-4.5732
660.000000	89.471	-3.7572
670.000000	89.486	-3.0223
680.000000	89.498	-2.3735
690.000000	89.502	-1.7524
700.000000	89.501	-1.1137
710.000000	89.503	-0.4498
720.000000	89.508	0.2164
730.000000	89.517	0.8676
740.000000	89.527	1.4971
750.000000	89.535	2.1024
762.000000	89.537	2.8223
775.000000	89.530	3.6866
788.000000	89.531	4.6964
800.000000	89.553	5.6886
812.000000	89.597	6.6531
825.000000	89.660	7.5975
838.000000	89.725	8.4154
850.000000	89.778	9.1233
862.000000	89.829	9.8527
875.000000	89.893	10.6536
885.000000	89.949	11.2385
900.000000	90.035	12.0386
912.000000	90.101	12.6459
925.000000	90.172	13.2966
938.000000	90.247	13.9296
950.000000	90.317	14.4863
962.000000	90.387	15.0214
975.000000	90.462	15.5897
988.000000	90.538	16.1528
1000.000000	90.609	16.6741
1015.000000	90.703	17.3427
1030.000000	90.808	18.0100
1044.000000	90.919	18.5709
1060.000000	91.049	19.0821
1075.000000	91.165	19.4656
1090.000000	91.272	19.8107
1106.000000	91.382	20.1587
1120.000000	91.475	20.4513
1138.000000	91.590	20.8208
1150.000000	91.667	21.0677
1172.000000	91.807	21.5330
1180.000000	91.860	21.7073
1206.000000	92.047	22.2241
1220.000000	92.151	22.4164
1241.000000	92.297	22.6052
1250.000000	92.355	22.6722
1265.000000	92.447	22.7868
1280.000000	92.535	22.9130
1315.000000	92.740	23.2530
1320.000000	92.770	23.3018
1340.000000	92.890	23.4880
1360.000000	93.009	23.6716
1380.000000	93.129	23.8784
1400.000000	93.257	24.1221
1430.000000	93.481	24.4354
1450.000000	93.642	24.4999
1475.000000	93.840	24.4190
1500.000000	94.029	24.2095
1525.000000	94.207	23.9142
1550.000000	94.377	23.5702
1575.000000	94.546	23.1801
1600.000000	94.714	22.6743
1625.000000	94.867	22.0245
1650.000000	94.996	21.2990
1675.000000	95.104	20.5669
1700.000000	95.197	19.8559
1725.000000	95.274	19.1721
1750.000000	95.339	18.5432
1775.000000	95.395	18.0126
1800.000000	95.457	17.5739
1825.000000	95.528	17.1514
1850.000000	95.604	16.6894
1875.000000	95.680	16.1791
1900.000000	95.751	15.6318
1925.000000	95.817	15.0688
1950.000000	95.880	14.5033
1975.000000	95.944	13.9097
2000.000000	96.004	13.2534
2030.000000	96.062	12.3941
2060.000000	96.101	11.5087
2090.000000	96.123	10.6349
2120.000000	96.128	9.7968
2140.000000	96.122	9.2806
2180.000000	96.100	8.3978
2200.000000	96.091	8.0104
2240.000000	96.074	7.2581
2270.000000	96.056	6.7024
2300.000000	96.032	6.1847
2330.000000	96.004	5.7319
2360.000000	95.979	5.3241
2400.000000	95.949	4.7731
2430.000000	95.921	4.3441
2470.000000	95.871	3.7908
2500.000000	95.821	3.4219
2540.000000	95.742	3.0587
2580.000000	95.661	2.8822
2620.000000	95.591	2.8312
2650.000000	95.542	2.8447
2690.000000	95.480	2.9559
2720.000000	95.440	3.1336
2760.000000	95.408	3.4653
2800.000000	95.403	3.8130
2850.000000	95.425	4.1505
2900.000000	95.459	4.3254
2950.000000	95.484	4.4186
3000.000000	95.503	4.5186
3040.000000	95.514	4.6251
3070.000000	95.520	4.7460
3110.000000	95.533	4.9944
3150.000000	95.562	5.3256
3200.000000	95.627	5.7551
3250.000000	95.719	6.0952
3300.000000	95.824	6.3080
3350.000000	95.934	6.4319
3400.000000	96.051	6.4762
3450.000000	96.169	6.4352
3500.000000	96.286	6.3581
3550.000000	96.411	6.2736
3600.000000	96.549	6.1418
3650.000000	96.698	5.9113
3700.000000	96.850	5.5740
3750.000000	97.004	5.1575
3820.000000	97.228	4.4385
3870.000000	97.392	3.8275
3950.000000	97.675	2.6964
4000.000000	97.872	1.8131
4060.000000	98.119	0.4506
4120.000000	98.361	-1.2911
4180.000000	98.584	-3.4159
4250.000000	98.801	-6.3643
4310.000000	98.937	-9.2183
4370.000000	99.023	-12.3184
4440.000000	99.053	-16.2290
4500.000000	99.003	-19.7716
4550.000000	98.901	-22.7720
4620.000000	98.662	-26.8964
4680.000000	98.370	-30.1985
4750.000000	97.942	-33.5962
4820.000000	97.447	-36.4315
4870.000000	97.063	-38.1099
4940.000000	96.494	-39.9633
5000.000000	95.986	-41.0795
5080.000000	95.295	-41.8425
5150.000000	94.704	-41.8134
5220.000000	94.162	-41.2676
5300.000000	93.631	-40.3456
5380.000000	93.178	-39.4464
5450.000000	92.807	-38.7548
5520.000000	92.431	-38.0061
5600.000000	91.998	-36.8719
5700.000000	91.498	-35.0486
5800.000000	91.061	-33.1246
5900.000000	90.643	-31.0797
6000.000000	90.247	-28.6769
6080.000000	89.971	-26.5154
6150.000000	89.765	-24.5195
6220.000000	89.593	-22.4773
6300.000000	89.433	-20.1078
6400.000000	89.285	-17.0864
6500.000000	89.202	-14.0217
6600.000000	89.187	-10.9830
6700.000000	89.237	-8.0245
6800.000000	89.353	-5.1544
6900.000000	89.542	-2.4042
7000.000000	89.812	0.1398
7100.000000	90.162	2.3845
7200.000000	90.596	4.2560
7300.000000	91.119	5.6423
7400.000000	91.728	6.3512
7500.000000	92.406	6.1458
7620.000000	93.267	4.3486
7750.000000	94.160	-0.0017
7880.000000	94.854	-7.2321
8000.000000	95.163	-16.1372
8120.000000	95.061	-26.0668
8250.000000	94.471	-36.2798
8380.000000	93.452	-44.4142
8500.000000	92.247	-49.4370
8620.000000	90.917	-52.1618
8750.000000	89.455	-53.0300
8850.000000	88.369	-52.5752
9000.000000	86.856	-50.5829
9120.000000	85.760	-48.2251
9250.000000	84.680	-45.1426
9380.000000	83.685	-41.5491
9500.000000	82.836	-37.7574
9620.000000	82.063	-33.5459
9750.000000	81.324	-28.6440
9880.000000	80.695	-23.5760
10000.000000	80.201	-18.8694
10150.000000	79.676	-12.9792
10300.000000	79.239	-7.0635
10440.000000	78.904	-1.5302
10600.000000	78.601	4.8159
10750.000000	78.396	10.7823
10900.000000	78.266	16.7356
11060.000000	78.212	23.0667
11200.000000	78.238	28.5692
11380.000000	78.376	35.5569
11500.000000	78.537	40.1505
11720.000000	78.990	48.3676
11800.000000	79.209	51.2718
12060.000000	80.148	60.2770
12200.000000	80.817	64.7431
12410.000000	82.069	70.7039
12500.000000	82.705	72.8897
12650.000000	83.896	75.8612
12800.000000	85.235	77.7203
13150.000000	88.588	75.1769
13200.000000	89.042	73.7404
13400.000000	90.624	64.7216
13600.000000	91.654	50.7668
13800.000000	91.982	33.8282
14000.000000	91.610	16.8670
14300.000000	90.023	-4.3145
14500.000000	88.482	-14.8096
14750.000000	86.135	-23.3103
15000.000000	83.354	-25.0489
15250.000000	80.260	-18.3195
15500.000000	77.338	-3.2931
15750.000000	75.908	17.0696
16000.000000	76.978	35.4176
16250.000000	79.053	43.4405
16500.000000	80.766	39.5188
16750.000000	81.666	26.8783
17000.000000	81.612	10.6316
17250.000000	80.669	-4.0527
17500.000000	79.066	-14.4172
17750.000000	77.073	-20.4142
18000.000000	74.906	-23.0391
18250.000000	72.691	-23.0910
18500.000000	70.498	-21.0355
18750.000000	68.389	-17.3270
19000.000000	66.430	-12.5886
19250.000000	64.668	-7.4995
19500.000000	63.085	-2.5532
19750.000000	61.604	2.1584
20000.000000	60.116	7.0263
