* Measurement data measured by REW V5.20.5
* Source: Mic in at front panel (Pink) (Realtek(R) Audio), MICROPHONE (Master Volume), L, volume: 0.250
* Format: 256k Log Swept Sine, 1 sweep at -12.0 dBFS with no timing reference
* Dated: Feb 20, 2022 12:37:45 PM
* REW Settings:
*  C-weighting compensation: Off
*  Target level: 75.0 dB
* Note: Olina Taped
* Measurement: Olina Taped
* Smoothing: 1/12 octave
* Frequency Step: 1/48 octave
* Start Frequency: 20.000 Hz
*
* Freq(Hz)	SPL(dB)	Phase(degrees)
20.000000	104.060	-5.2446
20.299999	104.030	-5.8699
20.600000	104.001	-6.4849
20.900000	103.975	-7.0859
21.200001	103.950	-7.6689
21.400000	103.935	-8.0459
21.799999	103.906	-8.7704
22.000000	103.893	-9.1179
22.400000	103.867	-9.7852
22.700001	103.848	-10.2637
23.000000	103.828	-10.7255
23.299999	103.806	-11.1708
23.600000	103.782	-11.6000
24.000000	103.746	-12.1478
24.299999	103.717	-12.5421
24.700001	103.674	-13.0509
25.000000	103.640	-13.4243
25.400000	103.593	-13.9169
25.799999	103.543	-14.4081
26.200001	103.491	-14.9005
26.500000	103.452	-15.2714
26.900000	103.398	-15.7689
27.200001	103.359	-16.1447
27.600000	103.306	-16.6492
28.000000	103.254	-17.1560
28.500000	103.191	-17.7879
29.000000	103.131	-18.4111
29.500000	103.074	-19.0195
30.000000	103.019	-19.6082
30.400000	102.978	-20.0623
30.700001	102.947	-20.3923
31.100000	102.908	-20.8179
31.500000	102.868	-21.2269
32.000000	102.819	-21.7167
32.500000	102.768	-22.1857
33.000000	102.715	-22.6384
33.500000	102.661	-23.0791
34.000000	102.604	-23.5111
34.500000	102.546	-23.9374
35.000000	102.486	-24.3599
35.500000	102.425	-24.7802
36.000000	102.363	-25.1976
36.500000	102.302	-25.6112
37.000000	102.241	-26.0189
37.500000	102.181	-26.4193
38.200001	102.100	-26.9657
38.700001	102.043	-27.3439
39.500000	101.953	-27.9238
40.000000	101.898	-28.2695
40.599998	101.832	-28.6692
41.200001	101.764	-29.0551
41.799999	101.695	-29.4246
42.500000	101.612	-29.8276
43.099998	101.541	-30.1499
43.700001	101.472	-30.4631
44.400002	101.392	-30.8318
45.000000	101.325	-31.1526
45.500000	101.268	-31.4194
46.200001	101.189	-31.7872
46.799999	101.121	-32.0945
47.500000	101.042	-32.4360
48.200001	100.964	-32.7527
48.700001	100.911	-32.9661
49.400002	100.838	-33.2584
50.000000	100.778	-33.5099
50.799999	100.697	-33.8441
51.500000	100.625	-34.1251
52.200001	100.554	-34.3883
53.000000	100.475	-34.6696
53.799999	100.398	-34.9382
54.500000	100.332	-35.1664
55.200001	100.268	-35.3887
56.000000	100.194	-35.6398
57.000000	100.102	-35.9495
58.000000	100.008	-36.2443
59.000000	99.918	-36.5422
60.000000	99.829	-36.8698
60.799999	99.754	-37.1406
61.500000	99.688	-37.3689
62.200001	99.621	-37.5837
63.000000	99.544	-37.8104
64.000000	99.447	-38.0546
65.000000	99.348	-38.2391
66.000000	99.252	-38.3602
67.000000	99.160	-38.4401
68.000000	99.073	-38.5259
69.000000	98.985	-38.6493
70.000000	98.891	-38.7931
71.000000	98.792	-38.9099
72.000000	98.701	-38.9889
73.000000	98.625	-39.1003
74.000000	98.557	-39.2964
75.000000	98.486	-39.5339
76.199997	98.397	-39.7878
77.500000	98.302	-39.9803
78.800003	98.210	-40.1016
80.000000	98.126	-40.1702
81.199997	98.044	-40.2043
82.500000	97.961	-40.2318
83.800003	97.886	-40.2853
85.000000	97.823	-40.3824
86.199997	97.761	-40.5469
87.500000	97.684	-40.7935
88.500000	97.613	-40.9856
90.000000	97.494	-41.2147
91.199997	97.399	-41.3526
92.500000	97.300	-41.4769
93.800003	97.207	-41.5840
95.000000	97.124	-41.6672
96.199997	97.040	-41.7350
97.500000	96.947	-41.7949
98.800003	96.852	-41.8433
100.000000	96.764	-41.8744
101.500000	96.658	-41.8851
103.000000	96.564	-41.8676
104.400002	96.483	-41.8381
106.000000	96.393	-41.8022
107.500000	96.307	-41.7776
109.000000	96.221	-41.7676
110.599998	96.130	-41.7731
112.000000	96.049	-41.7845
113.800003	95.929	-41.7771
115.000000	95.831	-41.7280
117.199997	95.626	-41.4834
118.000000	95.552	-41.3476
120.599998	95.383	-40.9208
122.000000	95.341	-40.8613
124.099998	95.295	-40.9321
125.000000	95.272	-40.9484
126.500000	95.228	-40.9199
128.000000	95.177	-40.8467
131.500000	95.033	-40.6500
132.000000	95.010	-40.6149
134.000000	94.919	-40.4437
136.000000	94.827	-40.2407
138.000000	94.736	-40.0399
140.000000	94.649	-39.8565
143.000000	94.533	-39.5823
145.000000	94.462	-39.3976
147.500000	94.371	-39.1956
150.000000	94.272	-39.0541
152.500000	94.164	-38.9307
155.000000	94.058	-38.7487
157.500000	93.962	-38.5128
160.000000	93.874	-38.2774
162.500000	93.785	-38.0615
165.000000	93.694	-37.8585
167.500000	93.601	-37.6615
170.000000	93.508	-37.4532
172.500000	93.420	-37.2209
175.000000	93.338	-36.9728
177.500000	93.262	-36.7274
180.000000	93.188	-36.4944
182.500000	93.114	-36.2723
185.000000	93.040	-36.0562
187.500000	92.965	-35.8427
190.000000	92.889	-35.6318
192.500000	92.815	-35.4274
195.000000	92.743	-35.2267
197.500000	92.672	-35.0128
200.000000	92.602	-34.7700
203.000000	92.522	-34.4439
206.000000	92.447	-34.1125
209.000000	92.375	-33.8052
212.000000	92.301	-33.5172
214.000000	92.248	-33.3209
218.000000	92.139	-32.8779
220.000000	92.087	-32.6300
224.000000	91.991	-32.1183
227.000000	91.925	-31.7472
230.000000	91.861	-31.4000
233.000000	91.796	-31.0789
236.000000	91.732	-30.7733
240.000000	91.647	-30.3699
243.000000	91.583	-30.0618
247.000000	91.495	-29.6270
250.000000	91.429	-29.2681
254.000000	91.347	-28.7383
258.000000	91.278	-28.1918
262.000000	91.219	-27.6993
265.000000	91.175	-27.3685
269.000000	91.113	-26.9343
272.000000	91.065	-26.5920
276.000000	91.005	-26.1107
280.000000	90.952	-25.6136
285.000000	90.898	-25.0050
290.000000	90.855	-24.4780
295.000000	90.806	-24.0510
300.000000	90.745	-23.6421
304.000000	90.693	-23.2893
307.000000	90.654	-23.0123
311.000000	90.603	-22.6379
315.000000	90.551	-22.2631
320.000000	90.484	-21.7786
325.000000	90.418	-21.2582
330.000000	90.358	-20.7158
335.000000	90.303	-20.1794
340.000000	90.252	-19.6646
345.000000	90.200	-19.1643
350.000000	90.147	-18.6618
355.000000	90.095	-18.1523
360.000000	90.045	-17.6396
365.000000	89.997	-17.1267
370.000000	89.950	-16.6133
375.000000	89.905	-16.0984
382.000000	89.845	-15.3767
387.000000	89.805	-14.8629
395.000000	89.743	-14.0429
400.000000	89.707	-13.5327
406.000000	89.666	-12.9294
412.000000	89.626	-12.3364
418.000000	89.585	-11.7354
425.000000	89.541	-10.9994
431.000000	89.510	-10.3512
437.000000	89.487	-9.7198
444.000000	89.467	-9.0276
450.000000	89.454	-8.4856
455.000000	89.443	-8.0818
462.000000	89.420	-7.5707
468.000000	89.390	-7.1272
475.000000	89.351	-6.5634
482.000000	89.314	-5.9705
487.000000	89.288	-5.5447
494.000000	89.250	-4.9308
500.000000	89.219	-4.3745
508.000000	89.186	-3.6223
515.000000	89.161	-2.9852
522.000000	89.135	-2.3574
530.000000	89.104	-1.6198
538.000000	89.078	-0.8600
545.000000	89.059	-0.1942
552.000000	89.042	0.4695
560.000000	89.028	1.2195
570.000000	89.012	2.1403
580.000000	88.998	3.0645
590.000000	88.988	3.9940
600.000000	88.984	4.9243
608.000000	88.985	5.6537
615.000000	88.987	6.2746
622.000000	88.988	6.8942
630.000000	88.990	7.6246
640.000000	88.999	8.5669
650.000000	89.020	9.5121
660.000000	89.055	10.4301
670.000000	89.102	11.2552
680.000000	89.152	11.9629
690.000000	89.200	12.5674
700.000000	89.245	13.0369
710.000000	89.275	13.3088
720.000000	89.257	13.4271
730.000000	89.168	13.7016
740.000000	89.040	14.5280
750.000000	88.948	15.9064
762.000000	88.935	17.7499
775.000000	88.998	19.4824
788.000000	89.082	20.9078
800.000000	89.159	22.0819
812.000000	89.238	23.1971
825.000000	89.334	24.3201
838.000000	89.431	25.3112
850.000000	89.512	26.1426
862.000000	89.584	26.9548
875.000000	89.659	27.8475
885.000000	89.716	28.5446
900.000000	89.806	29.5866
912.000000	89.881	30.4168
925.000000	89.967	31.3088
938.000000	90.059	32.1741
950.000000	90.146	32.9385
962.000000	90.234	33.6770
975.000000	90.330	34.4630
988.000000	90.426	35.2433
1000.000000	90.517	35.9671
1015.000000	90.635	36.8967
1030.000000	90.766	37.8398
1044.000000	90.903	38.6770
1060.000000	91.067	39.5276
1075.000000	91.223	40.2429
1090.000000	91.380	40.9118
1106.000000	91.553	41.5642
1120.000000	91.707	42.0644
1138.000000	91.902	42.6056
1150.000000	92.029	42.9129
1172.000000	92.254	43.4100
1180.000000	92.335	43.5798
1206.000000	92.604	44.0519
1220.000000	92.749	44.2079
1241.000000	92.951	44.3301
1250.000000	93.031	44.3643
1265.000000	93.158	44.4186
1280.000000	93.277	44.4783
1315.000000	93.540	44.6502
1320.000000	93.577	44.6752
1340.000000	93.721	44.7707
1360.000000	93.864	44.8773
1380.000000	94.007	45.0299
1400.000000	94.157	45.2525
1430.000000	94.404	45.6186
1450.000000	94.576	45.7885
1475.000000	94.781	45.9305
1500.000000	94.970	46.0521
1525.000000	95.137	46.1936
1550.000000	95.287	46.3800
1575.000000	95.433	46.5942
1600.000000	95.586	46.7421
1625.000000	95.738	46.7700
1650.000000	95.881	46.7233
1675.000000	96.016	46.6534
1700.000000	96.148	46.5752
1725.000000	96.274	46.4847
1750.000000	96.391	46.4042
1775.000000	96.503	46.3737
1800.000000	96.625	46.3820
1825.000000	96.759	46.3475
1850.000000	96.900	46.2134
1875.000000	97.039	45.9817
1900.000000	97.175	45.6863
1925.000000	97.311	45.3752
1950.000000	97.455	45.0811
1975.000000	97.608	44.7878
2000.000000	97.765	44.4614
2030.000000	97.949	44.0311
2060.000000	98.124	43.6039
2090.000000	98.296	43.2110
2120.000000	98.468	42.8558
2140.000000	98.587	42.6372
2180.000000	98.843	42.1732
2200.000000	98.981	41.8571
2240.000000	99.250	40.9358
2270.000000	99.428	40.0502
2300.000000	99.581	39.1276
2330.000000	99.723	38.2477
2360.000000	99.868	37.3799
2400.000000	100.064	36.0811
2430.000000	100.199	34.9449
2470.000000	100.344	33.2674
2500.000000	100.420	31.9661
2540.000000	100.482	30.3098
2580.000000	100.521	28.8247
2620.000000	100.553	27.4454
2650.000000	100.573	26.4242
2690.000000	100.587	25.0698
2720.000000	100.586	24.0811
2760.000000	100.573	22.8046
2800.000000	100.546	21.5615
2850.000000	100.486	20.0769
2900.000000	100.396	18.7335
2950.000000	100.281	17.6307
3000.000000	100.162	16.7786
3040.000000	100.070	16.2246
3070.000000	100.000	15.8785
3110.000000	99.910	15.5223
3150.000000	99.829	15.2673
3200.000000	99.742	15.0168
3250.000000	99.662	14.7867
3300.000000	99.577	14.5928
3350.000000	99.484	14.5181
3400.000000	99.392	14.6111
3450.000000	99.307	14.8894
3500.000000	99.240	15.3875
3550.000000	99.205	16.0800
3600.000000	99.211	16.8622
3650.000000	99.255	17.6320
3700.000000	99.327	18.3458
3750.000000	99.422	19.0043
3820.000000	99.587	19.7928
3870.000000	99.719	20.2537
3950.000000	99.958	20.8716
4000.000000	100.132	21.1490
4060.000000	100.363	21.3016
4120.000000	100.611	21.2448
4180.000000	100.874	20.9892
4250.000000	101.194	20.4401
4310.000000	101.483	19.7830
4370.000000	101.797	18.9214
4440.000000	102.202	17.4870
4500.000000	102.570	15.7267
4550.000000	102.879	13.7910
4620.000000	103.287	10.2297
4680.000000	103.575	6.3326
4750.000000	103.791	0.8677
4820.000000	103.829	-5.3440
4870.000000	103.723	-9.9714
4940.000000	103.377	-16.1982
5000.000000	102.914	-20.8766
5080.000000	102.117	-25.6957
5150.000000	101.324	-28.4579
5220.000000	100.516	-30.0338
5300.000000	99.634	-30.7527
5380.000000	98.823	-30.6847
5450.000000	98.170	-30.1797
5520.000000	97.563	-29.3339
5600.000000	96.925	-28.0093
5700.000000	96.215	-25.9582
5800.000000	95.598	-23.6306
5900.000000	95.057	-21.1082
6000.000000	94.583	-18.3737
6080.000000	94.257	-16.0560
6150.000000	94.012	-13.9714
6220.000000	93.801	-11.8644
6300.000000	93.598	-9.4348
6400.000000	93.399	-6.3445
6500.000000	93.268	-3.2111
6600.000000	93.210	-0.1044
6700.000000	93.221	2.9193
6800.000000	93.302	5.8510
6900.000000	93.458	8.6565
7000.000000	93.689	11.2445
7100.000000	93.997	13.5165
7200.000000	94.386	15.3939
7300.000000	94.861	16.7611
7400.000000	95.418	17.4279
7500.000000	96.036	17.1719
7620.000000	96.815	15.3424
7750.000000	97.615	11.0687
7880.000000	98.221	4.1243
8000.000000	98.467	-4.3020
8120.000000	98.326	-13.6044
8250.000000	97.725	-23.1091
8380.000000	96.725	-30.6429
8500.000000	95.554	-35.2484
8620.000000	94.267	-37.6593
8750.000000	92.855	-38.2432
8850.000000	91.807	-37.5673
9000.000000	90.349	-35.1770
9120.000000	89.303	-32.4097
9250.000000	88.293	-28.8057
9380.000000	87.403	-24.7100
9500.000000	86.686	-20.6008
9620.000000	86.062	-16.2564
9750.000000	85.486	-11.3192
9880.000000	85.011	-6.1707
10000.000000	84.659	-1.2642
10150.000000	84.330	5.0773
10300.000000	84.132	11.6722
10440.000000	84.082	18.0565
10600.000000	84.225	25.6461
10750.000000	84.630	33.0085
10900.000000	85.403	40.4128
11060.000000	86.734	47.8553
11200.000000	88.308	53.1821
11380.000000	90.654	56.6674
11500.000000	92.216	55.7873
11720.000000	94.591	45.6254
11800.000000	95.200	39.1988
12060.000000	95.938	12.2416
12200.000000	95.516	-2.3873
12410.000000	93.988	-19.1328
12500.000000	93.095	-23.8688
12650.000000	91.431	-28.7352
12800.000000	89.684	-30.5499
13150.000000	85.935	-27.5322
13200.000000	85.474	-26.5968
13400.000000	83.843	-22.1443
13600.000000	82.540	-16.9174
13800.000000	81.531	-11.2423
14000.000000	80.792	-5.3362
14300.000000	80.194	3.4834
14500.000000	80.161	8.9303
14750.000000	80.570	14.6245
15000.000000	81.499	18.1382
15250.000000	82.842	17.7057
15500.000000	84.218	10.8087
15750.000000	85.054	-3.8910
16000.000000	84.876	-23.2469
16250.000000	83.563	-40.3319
16500.000000	81.357	-50.4879
16750.000000	78.659	-53.8994
17000.000000	75.853	-52.8990
17250.000000	73.221	-49.5615
17500.000000	70.917	-45.1874
17750.000000	68.968	-40.5358
18000.000000	67.311	-36.0620
18250.000000	65.851	-32.0062
18500.000000	64.485	-28.3592
18750.000000	63.120	-24.8346
19000.000000	61.701	-21.0521
19250.000000	60.224	-16.8619
19500.000000	58.743	-12.5117
19750.000000	57.420	-8.6586
