* Measurement data measured by REW V5.20.4
* Source: Mic in at front panel (Pink) (Realtek(R) Audio), MICROPHONE (Master Volume), L, volume: 0.250
* Format: 256k Log Swept Sine, 1 sweep at -12.0 dBFS with no timing reference
* Dated: Apr 20, 2022 9:18:14 PM
* REW Settings:
*  C-weighting compensation: Off
*  Target level: 75.0 dB
* Note: TRN VX Pro Red L
* Measurement: TRN VX RED L
* Smoothing: 1/12 octave
* Frequency Step: 1/48 octave
* Start Frequency: 20.000 Hz
*
* Freq(Hz)	SPL(dB)	Phase(degrees)
20.000000	95.195	48.0546
20.299999	95.235	47.3285
20.600000	95.269	46.5974
20.900000	95.296	45.8721
21.200001	95.320	45.1641
21.400000	95.336	44.7041
21.799999	95.372	43.8085
22.000000	95.391	43.3694
22.400000	95.433	42.5000
22.700001	95.464	41.8546
23.000000	95.493	41.2199
23.299999	95.521	40.6044
23.600000	95.547	40.0141
24.000000	95.580	39.2702
24.299999	95.605	38.7407
24.700001	95.638	38.0603
25.000000	95.662	37.5587
25.400000	95.694	36.8907
25.799999	95.724	36.2177
26.200001	95.751	35.5419
26.500000	95.769	35.0387
26.900000	95.787	34.3807
27.200001	95.797	33.9024
27.600000	95.807	33.2877
28.000000	95.816	32.6954
28.500000	95.830	31.9721
29.000000	95.847	31.2530
29.500000	95.862	30.5372
30.000000	95.874	29.8350
30.400000	95.883	29.2886
30.700001	95.890	28.8882
31.100000	95.898	28.3665
31.500000	95.906	27.8616
32.000000	95.912	27.2614
32.500000	95.915	26.6990
33.000000	95.923	26.1594
33.500000	95.936	25.6152
34.000000	95.952	25.0490
34.500000	95.966	24.4717
35.000000	95.977	23.9116
35.500000	95.988	23.3892
36.000000	96.005	22.8973
36.500000	96.026	22.4110
37.000000	96.047	21.9084
37.500000	96.060	21.3897
38.200001	96.062	20.6738
38.700001	96.052	20.1947
39.500000	96.030	19.4874
40.000000	96.017	19.0668
40.599998	96.005	18.5741
41.200001	95.996	18.0956
41.799999	95.990	17.6273
42.500000	95.985	17.0821
43.099998	95.981	16.6174
43.700001	95.974	16.1674
44.400002	95.964	15.6664
45.000000	95.953	15.2531
45.500000	95.943	14.9211
46.200001	95.928	14.4816
46.799999	95.914	14.1257
47.500000	95.897	13.7251
48.200001	95.876	13.3385
48.700001	95.859	13.0706
49.400002	95.835	12.7002
50.000000	95.817	12.3853
50.799999	95.797	11.9727
51.500000	95.784	11.6134
52.200001	95.770	11.2626
53.000000	95.753	10.9085
53.799999	95.748	10.6001
54.500000	95.756	10.3125
55.200001	95.770	9.9835
56.000000	95.785	9.5853
57.000000	95.796	9.0972
58.000000	95.793	8.6339
59.000000	95.776	8.2067
60.000000	95.747	7.7923
60.799999	95.718	7.4482
61.500000	95.690	7.1349
62.200001	95.662	6.8168
63.000000	95.636	6.4612
64.000000	95.613	6.0637
65.000000	95.605	5.7656
66.000000	95.617	5.5807
67.000000	95.646	5.5033
68.000000	95.687	5.4937
69.000000	95.729	5.4905
70.000000	95.771	5.3427
71.000000	95.778	4.7914
72.000000	95.688	4.0560
73.000000	95.533	3.6773
74.000000	95.404	3.6644
75.000000	95.337	3.6906
76.199997	95.315	3.5812
77.500000	95.329	3.3113
78.800003	95.355	2.9928
80.000000	95.376	2.7126
81.199997	95.384	2.4207
82.500000	95.371	2.0796
83.800003	95.342	1.7211
85.000000	95.312	1.3562
86.199997	95.280	0.9413
87.500000	95.240	0.4897
88.500000	95.206	0.2128
90.000000	95.161	-0.0519
91.199997	95.134	-0.1772
92.500000	95.112	-0.2932
93.800003	95.091	-0.4504
95.000000	95.068	-0.6395
96.199997	95.044	-0.8452
97.500000	95.019	-1.0618
98.800003	94.994	-1.2489
100.000000	94.968	-1.3695
101.500000	94.932	-1.4525
103.000000	94.897	-1.5354
104.400002	94.863	-1.6711
106.000000	94.827	-1.8702
107.500000	94.802	-2.0187
109.000000	94.785	-2.0942
110.599998	94.765	-2.1443
112.000000	94.738	-2.2621
113.800003	94.700	-2.6802
115.000000	94.694	-3.1887
117.199997	94.748	-4.6021
118.000000	94.771	-5.1791
120.599998	94.742	-6.0392
122.000000	94.689	-5.4814
124.099998	94.631	-4.2037
125.000000	94.609	-3.7606
126.500000	94.573	-3.2770
128.000000	94.549	-3.0729
131.500000	94.543	-2.9857
132.000000	94.545	-2.9682
134.000000	94.549	-2.9198
136.000000	94.537	-3.0594
138.000000	94.501	-3.3641
140.000000	94.458	-3.6027
143.000000	94.414	-3.7466
145.000000	94.383	-3.8207
147.500000	94.338	-3.9540
150.000000	94.301	-4.0864
152.500000	94.278	-4.1311
155.000000	94.264	-4.1611
157.500000	94.245	-4.2834
160.000000	94.222	-4.4548
162.500000	94.201	-4.6183
165.000000	94.175	-4.7598
167.500000	94.132	-4.8729
170.000000	94.071	-4.9417
172.500000	94.001	-4.9655
175.000000	93.932	-4.9686
177.500000	93.873	-4.9754
180.000000	93.832	-4.9937
182.500000	93.811	-5.0248
185.000000	93.806	-5.0674
187.500000	93.807	-5.1171
190.000000	93.807	-5.1704
192.500000	93.801	-5.2258
195.000000	93.789	-5.2726
197.500000	93.770	-5.2916
200.000000	93.747	-5.2738
203.000000	93.718	-5.2229
206.000000	93.693	-5.1747
209.000000	93.666	-5.1478
212.000000	93.632	-5.1420
214.000000	93.607	-5.1479
218.000000	93.556	-5.1534
220.000000	93.533	-5.1351
224.000000	93.497	-5.0677
227.000000	93.477	-5.0274
230.000000	93.459	-5.0072
233.000000	93.441	-4.9938
236.000000	93.421	-4.9758
240.000000	93.390	-4.9540
243.000000	93.362	-4.9431
247.000000	93.321	-4.9135
250.000000	93.290	-4.8597
254.000000	93.254	-4.7338
258.000000	93.229	-4.5855
262.000000	93.209	-4.4854
265.000000	93.192	-4.4458
269.000000	93.163	-4.3954
272.000000	93.141	-4.3362
276.000000	93.112	-4.2265
280.000000	93.089	-4.0988
285.000000	93.071	-3.9586
290.000000	93.062	-3.9133
295.000000	93.045	-3.9643
300.000000	93.016	-4.0129
304.000000	92.990	-4.0107
307.000000	92.971	-3.9901
311.000000	92.945	-3.9521
315.000000	92.915	-3.9102
320.000000	92.873	-3.8373
325.000000	92.831	-3.7225
330.000000	92.794	-3.5793
335.000000	92.759	-3.4349
340.000000	92.724	-3.3025
345.000000	92.688	-3.1734
350.000000	92.657	-3.0348
355.000000	92.631	-2.8896
360.000000	92.606	-2.7478
365.000000	92.576	-2.6107
370.000000	92.542	-2.4723
375.000000	92.508	-2.3274
382.000000	92.464	-2.1115
387.000000	92.434	-1.9482
395.000000	92.387	-1.6708
400.000000	92.357	-1.4895
406.000000	92.321	-1.2737
412.000000	92.283	-1.0630
418.000000	92.243	-0.8407
425.000000	92.201	-0.5411
431.000000	92.170	-0.2559
437.000000	92.144	0.0319
444.000000	92.117	0.3557
450.000000	92.096	0.6104
455.000000	92.080	0.7914
462.000000	92.053	1.0079
468.000000	92.025	1.2030
475.000000	91.992	1.4653
482.000000	91.960	1.7365
487.000000	91.936	1.9245
494.000000	91.896	2.2052
500.000000	91.862	2.4818
508.000000	91.822	2.8740
515.000000	91.790	3.2098
522.000000	91.755	3.5482
530.000000	91.713	3.9665
538.000000	91.674	4.4188
545.000000	91.645	4.8262
552.000000	91.617	5.2402
560.000000	91.589	5.7117
570.000000	91.555	6.2885
580.000000	91.519	6.8751
590.000000	91.479	7.4912
600.000000	91.441	8.1488
608.000000	91.416	8.6925
615.000000	91.399	9.1710
622.000000	91.382	9.6618
630.000000	91.363	10.2554
640.000000	91.346	11.0359
650.000000	91.338	11.8275
660.000000	91.343	12.6025
670.000000	91.358	13.3084
680.000000	91.369	13.9519
690.000000	91.370	14.6056
700.000000	91.367	15.3227
710.000000	91.371	16.0996
720.000000	91.389	16.8788
730.000000	91.415	17.6112
740.000000	91.441	18.2989
750.000000	91.464	18.9753
762.000000	91.488	19.8092
775.000000	91.517	20.7492
788.000000	91.553	21.7169
800.000000	91.597	22.6392
812.000000	91.653	23.5818
825.000000	91.730	24.5597
838.000000	91.814	25.4269
850.000000	91.888	26.1547
862.000000	91.954	26.8698
875.000000	92.023	27.6619
885.000000	92.080	28.2844
900.000000	92.171	29.2186
912.000000	92.248	29.9657
925.000000	92.339	30.7701
938.000000	92.437	31.5479
950.000000	92.533	32.2285
962.000000	92.631	32.8791
975.000000	92.740	33.5635
988.000000	92.852	34.2335
1000.000000	92.958	34.8455
1015.000000	93.095	35.6168
1030.000000	93.245	36.3745
1044.000000	93.399	37.0087
1060.000000	93.581	37.5901
1075.000000	93.748	38.0252
1090.000000	93.911	38.4073
1106.000000	94.085	38.7785
1120.000000	94.237	39.0776
1138.000000	94.429	39.4359
1150.000000	94.555	39.6622
1172.000000	94.786	40.0584
1180.000000	94.873	40.1967
1206.000000	95.173	40.5537
1220.000000	95.341	40.6318
1241.000000	95.583	40.6120
1250.000000	95.681	40.5759
1265.000000	95.839	40.5008
1280.000000	95.991	40.4152
1315.000000	96.339	40.1764
1320.000000	96.389	40.1331
1340.000000	96.586	39.9291
1360.000000	96.780	39.6906
1380.000000	96.971	39.4494
1400.000000	97.167	39.2261
1430.000000	97.488	38.8196
1450.000000	97.713	38.4042
1475.000000	97.994	37.7366
1500.000000	98.277	36.9627
1525.000000	98.565	36.1259
1550.000000	98.855	35.2565
1575.000000	99.134	34.3426
1600.000000	99.370	33.2948
1625.000000	99.521	32.0656
1650.000000	99.572	30.7086
1675.000000	99.552	29.2846
1700.000000	99.509	27.8188
1725.000000	99.479	26.3181
1750.000000	99.478	24.8156
1775.000000	99.506	23.3639
1800.000000	99.555	21.9688
1825.000000	99.610	20.5727
1850.000000	99.655	19.1493
1875.000000	99.679	17.7282
1900.000000	99.680	16.3589
1925.000000	99.659	15.0892
1950.000000	99.622	13.9418
1975.000000	99.574	12.8907
2000.000000	99.515	11.8998
2030.000000	99.422	10.8061
2060.000000	99.304	9.8846
2090.000000	99.168	9.1888
2120.000000	99.024	8.7370
2140.000000	98.932	8.5721
2180.000000	98.778	8.4912
2200.000000	98.724	8.4884
2240.000000	98.642	8.3625
2270.000000	98.579	8.1558
2300.000000	98.500	7.9487
2330.000000	98.405	7.8384
2360.000000	98.308	7.8506
2400.000000	98.184	8.0021
2430.000000	98.096	8.1914
2470.000000	97.982	8.5408
2500.000000	97.898	8.8790
2540.000000	97.785	9.4758
2580.000000	97.682	10.2772
2620.000000	97.599	11.2340
2650.000000	97.551	12.0295
2690.000000	97.504	13.2172
2720.000000	97.488	14.2197
2760.000000	97.506	15.6548
2800.000000	97.572	17.0853
2850.000000	97.714	18.7111
2900.000000	97.898	20.0634
2950.000000	98.099	21.1850
3000.000000	98.316	22.1246
3040.000000	98.502	22.7362
3070.000000	98.650	23.1226
3110.000000	98.862	23.5570
3150.000000	99.096	23.8699
3200.000000	99.413	23.9868
3250.000000	99.737	23.7142
3300.000000	100.039	23.0635
3350.000000	100.300	22.1511
3400.000000	100.515	21.0906
3450.000000	100.681	19.9879
3500.000000	100.808	18.9722
3550.000000	100.924	18.0779
3600.000000	101.052	17.1904
3650.000000	101.195	16.1402
3700.000000	101.339	14.8115
3750.000000	101.466	13.1765
3820.000000	101.579	10.4152
3870.000000	101.586	8.2469
3950.000000	101.441	4.9438
4000.000000	101.254	3.2360
4060.000000	100.941	1.7649
4120.000000	100.549	1.1165
4180.000000	100.115	1.4022
4250.000000	99.613	2.8711
4310.000000	99.241	4.9720
4370.000000	98.971	7.6119
4440.000000	98.823	10.9504
4500.000000	98.836	13.7133
4550.000000	98.931	15.7954
4620.000000	99.160	18.2162
4680.000000	99.417	19.7722
4750.000000	99.760	20.9666
4820.000000	100.126	21.4538
4870.000000	100.382	21.3586
4940.000000	100.707	20.6625
5000.000000	100.936	19.6403
5080.000000	101.145	17.9189
5150.000000	101.233	16.3510
5220.000000	101.246	14.9124
5300.000000	101.185	13.5273
5380.000000	101.053	12.4576
5450.000000	100.882	11.8419
5520.000000	100.669	11.6219
5600.000000	100.406	11.8809
5700.000000	100.095	12.8195
5800.000000	99.835	14.2117
5900.000000	99.628	15.9236
6000.000000	99.475	17.9510
6080.000000	99.396	19.7705
6150.000000	99.362	21.4637
6220.000000	99.357	23.2183
6300.000000	99.386	25.2913
6400.000000	99.472	28.0045
6500.000000	99.621	30.8366
6600.000000	99.841	33.7155
6700.000000	100.133	36.5808
6800.000000	100.503	39.4156
6900.000000	100.964	42.1730
7000.000000	101.523	44.7443
7100.000000	102.186	47.0062
7200.000000	102.962	48.8419
7300.000000	103.864	50.0679
7400.000000	104.887	50.3753
7500.000000	105.989	49.3568
7620.000000	107.312	45.7477
7750.000000	108.545	38.1414
7880.000000	109.315	26.6591
8000.000000	109.446	14.1287
8120.000000	109.000	2.2357
8250.000000	107.996	-7.6128
8380.000000	106.677	-13.4607
8500.000000	105.386	-15.6927
8620.000000	104.184	-15.6915
8750.000000	103.094	-14.0632
8850.000000	102.437	-12.0963
9000.000000	101.759	-8.5353
9120.000000	101.469	-5.5701
9250.000000	101.373	-2.6207
9380.000000	101.465	-0.2486
9500.000000	101.673	1.1823
9620.000000	101.953	1.7219
9750.000000	102.286	1.2438
9880.000000	102.609	-0.3458
10000.000000	102.865	-2.8059
10150.000000	103.075	-7.1562
10300.000000	103.097	-12.6713
10440.000000	102.900	-18.3951
10600.000000	102.393	-24.7614
10750.000000	101.668	-29.7950
10900.000000	100.764	-33.5134
11060.000000	99.692	-35.9629
11200.000000	98.737	-36.9874
11380.000000	97.552	-37.1086
11500.000000	96.806	-36.6099
11720.000000	95.561	-34.8538
11800.000000	95.151	-34.0195
12060.000000	94.003	-30.9674
12200.000000	93.515	-29.3855
12410.000000	92.940	-27.5991
12500.000000	92.736	-27.1715
12650.000000	92.418	-27.0140
12800.000000	92.088	-27.5707
13150.000000	91.027	-30.8945
13200.000000	90.825	-31.4490
13400.000000	89.865	-33.3513
13600.000000	88.667	-34.2061
13800.000000	87.268	-33.5642
14000.000000	85.757	-31.3137
14300.000000	83.540	-25.2345
14500.000000	82.241	-19.7281
14750.000000	80.909	-11.6163
15000.000000	79.921	-2.4999
15250.000000	79.271	7.1643
15500.000000	78.957	16.7101
15750.000000	79.005	25.1214
16000.000000	79.477	31.0083
16250.000000	80.367	32.7987
16500.000000	81.439	28.9414
16750.000000	82.241	18.5690
17000.000000	82.313	3.2606
17250.000000	81.423	-12.1997
17500.000000	79.652	-22.9741
17750.000000	77.264	-27.3081
18000.000000	74.532	-25.5885
18250.000000	71.701	-18.6129
18500.000000	69.127	-8.1600
18750.000000	67.357	1.5699
19000.000000	66.521	6.4315
19250.000000	66.019	6.0332
19500.000000	65.382	2.8812
19750.000000	64.632	-0.4687
