* Measurement data measured by REW V5.19
* Source: Mic in at front panel (Pink) (Realtek(R) Audio), no input selected, L, volume: no control
* Format: 256k Log Swept Sine, 1 sweep at -12.0 dBFS  With no timing reference
* Dated: Jun 24, 2021 6:00:40 PM
* REW Settings:
*  C-weighting compensation: Off
*  Target level: 75.0 dB
* Note: TRN BA5
* Measurement: Jun 24 18:00:40
* Smoothing: None
* Frequency Step: 1/48 octave
* Start Frequency: 20.3 Hz
*
* Freq(Hz)	SPL(dB)	Phase(degrees)
20.291	75.174	26.737
20.586	75.185	26.381
20.885	75.199	26.130
21.189	75.195	25.897
21.497	75.197	25.636
21.810	75.216	25.321
22.127	75.232	24.948
22.449	75.233	24.535
22.776	75.231	24.109
23.107	75.231	23.697
23.443	75.227	23.308
23.784	75.229	22.931
24.130	75.241	22.545
24.481	75.263	22.136
24.837	75.282	21.699
25.198	75.287	21.245
25.565	75.299	20.790
25.937	75.319	20.345
26.314	75.336	19.917
26.697	75.359	19.503
27.085	75.374	19.103
27.479	75.372	18.719
27.879	75.381	18.357
28.284	75.379	18.020
28.696	75.383	17.706
29.113	75.399	17.405
29.537	75.405	17.105
29.966	75.409	16.794
30.402	75.408	16.467
30.844	75.412	16.126
31.293	75.427	15.772
31.748	75.434	15.408
32.210	75.436	15.038
32.678	75.416	14.670
33.154	75.415	14.303
33.636	75.431	13.926
34.125	75.441	13.523
34.621	75.453	13.102
35.125	75.462	12.695
35.636	75.471	12.324
36.154	75.493	11.978
36.680	75.521	11.625
37.214	75.540	11.266
37.755	75.538	10.942
38.304	75.526	10.678
38.861	75.524	10.442
39.427	75.507	10.175
40.000	75.488	9.853
40.582	75.495	9.496
41.172	75.495	9.141
41.771	75.483	8.809
42.379	75.477	8.502
42.995	75.488	8.200
43.620	75.507	7.884
44.255	75.516	7.560
44.898	75.517	7.237
45.552	75.513	6.916
46.214	75.514	6.613
46.886	75.514	6.342
47.568	75.508	6.071
48.260	75.500	5.792
48.962	75.479	5.530
49.674	75.455	5.244
50.397	75.449	4.916
51.130	75.449	4.653
51.874	75.467	4.451
52.628	75.491	4.123
53.394	75.474	3.705
54.170	75.451	3.423
54.958	75.461	3.217
55.758	75.473	2.925
56.569	75.475	2.634
57.391	75.481	2.389
58.226	75.484	2.094
59.073	75.483	1.758
59.932	75.483	1.431
60.804	75.473	1.151
61.688	75.463	0.869
62.586	75.458	0.531
63.496	75.454	0.230
64.420	75.450	-0.038
65.357	75.441	-0.319
66.307	75.424	-0.643
67.272	75.414	-0.906
68.250	75.415	-1.165
69.243	75.408	-1.330
70.250	75.423	-1.566
71.272	75.385	-1.891
72.309	75.379	-1.962
73.360	75.350	-2.575
74.427	75.284	-2.463
75.510	75.336	-2.577
76.608	75.287	-2.935
77.723	75.325	-2.800
78.853	75.412	-3.513
80.000	75.399	-4.168
81.164	75.436	-4.740
82.344	75.369	-5.296
83.542	75.398	-5.085
84.757	75.444	-5.750
85.990	75.372	-6.171
87.241	75.301	-6.095
88.510	75.266	-6.328
89.797	75.211	-6.482
91.103	75.150	-7.139
92.428	75.120	-6.876
93.773	75.199	-7.416
95.137	75.178	-7.659
96.520	75.203	-7.607
97.924	75.161	-7.946
99.349	75.106	-7.668
100.794	75.026	-8.039
102.260	75.145	-8.114
103.747	75.004	-9.307
105.256	75.099	-8.653
106.787	75.079	-9.157
108.340	75.035	-9.622
109.916	74.992	-10.105
111.515	74.970	-10.646
113.137	74.980	-10.581
114.783	74.892	-10.404
116.452	74.823	-10.802
118.146	74.716	-10.520
119.865	73.314	-7.747
121.608	74.804	-8.668
123.377	74.677	-9.793
125.171	74.866	-10.129
126.992	75.037	-10.447
128.839	75.165	-10.497
130.713	75.099	-10.841
132.615	75.105	-11.910
134.543	75.246	-12.001
136.500	75.171	-13.399
138.486	75.128	-13.783
140.500	75.128	-15.142
142.544	75.061	-15.360
144.617	75.045	-15.744
146.721	75.008	-15.940
148.855	74.862	-16.242
151.020	74.865	-17.043
153.217	74.774	-17.644
155.445	74.782	-17.975
157.706	74.802	-18.232
160.000	74.879	-18.971
162.327	74.759	-18.630
164.688	74.736	-18.877
167.084	74.683	-19.325
169.514	74.595	-19.747
171.980	74.489	-19.932
174.481	74.398	-20.069
177.019	74.317	-20.302
179.594	74.238	-20.505
182.206	74.199	-20.779
184.856	74.220	-20.998
187.545	74.229	-21.246
190.273	74.228	-21.646
193.041	74.209	-21.878
195.849	74.221	-22.192
198.697	74.197	-22.547
201.587	74.128	-22.871
204.520	74.103	-23.100
207.494	74.104	-23.475
210.512	74.046	-23.928
213.574	73.979	-24.383
216.681	73.915	-24.800
219.833	73.821	-24.948
223.030	73.775	-25.135
226.274	73.737	-25.388
229.565	73.690	-25.645
232.905	73.648	-25.956
236.292	73.605	-26.200
239.729	73.551	-26.502
243.216	73.494	-26.825
246.754	73.449	-27.098
250.343	73.355	-27.379
253.984	73.278	-27.590
257.678	73.230	-27.443
261.426	73.224	-27.677
265.229	73.177	-28.079
269.087	73.108	-28.443
273.001	73.032	-28.560
276.972	72.982	-28.707
281.000	72.912	-28.894
285.088	72.862	-28.986
289.234	72.858	-29.017
293.441	72.842	-29.578
297.710	72.758	-30.030
302.040	72.689	-30.282
306.433	72.636	-30.484
310.890	72.591	-30.666
315.412	72.532	-30.940
320.000	72.429	-31.304
324.655	72.361	-31.347
329.377	72.301	-31.459
334.168	72.238	-31.597
339.028	72.182	-31.740
343.959	72.105	-32.002
348.962	72.023	-32.158
354.038	71.974	-32.296
359.188	71.922	-32.438
364.412	71.847	-32.572
369.713	71.767	-32.687
375.090	71.690	-32.797
380.546	71.627	-32.889
386.081	71.559	-33.001
391.697	71.495	-33.083
397.395	71.429	-33.152
403.175	71.351	-33.207
409.039	71.295	-33.253
414.989	71.215	-33.423
421.025	71.131	-33.495
427.149	71.053	-33.484
433.362	71.008	-33.304
439.665	70.950	-33.435
446.060	70.877	-33.411
452.548	70.826	-33.292
459.131	70.831	-33.614
465.809	70.708	-33.908
472.584	70.628	-33.931
479.458	70.543	-33.847
486.432	70.509	-33.782
493.507	70.380	-34.198
500.686	70.296	-33.808
507.968	70.241	-33.662
515.357	70.180	-33.691
522.853	70.111	-33.674
530.458	69.985	-33.669
538.174	69.949	-33.289
546.002	69.866	-33.367
553.943	69.800	-33.046
562.001	69.743	-32.859
570.175	69.680	-32.819
578.469	69.594	-32.665
586.883	69.559	-32.395
595.419	69.429	-32.312
604.080	69.377	-31.919
612.866	69.332	-31.617
621.780	69.286	-31.544
630.824	69.145	-31.282
640.000	69.162	-30.669
649.309	69.071	-30.425
658.753	69.000	-29.919
668.335	69.056	-29.355
678.056	69.013	-29.384
687.919	68.969	-29.022
697.925	68.904	-28.945
708.076	68.845	-28.451
718.376	68.825	-28.074
728.825	68.779	-27.698
739.426	68.742	-27.265
750.181	68.706	-26.834
761.093	68.668	-26.354
772.163	68.637	-25.878
783.394	68.616	-25.265
794.789	68.599	-24.889
806.349	68.562	-24.163
818.078	68.582	-23.588
829.977	68.604	-22.610
842.050	68.659	-22.729
854.297	68.638	-22.263
866.724	68.688	-22.126
879.330	68.628	-21.313
892.120	68.677	-20.792
905.097	68.666	-20.577
918.262	68.715	-19.861
931.618	68.717	-19.195
945.169	68.788	-18.716
958.917	68.809	-18.137
972.864	68.830	-17.831
987.015	68.899	-17.189
1001.371	68.979	-17.068
1015.937	69.022	-16.213
1030.714	69.041	-15.826
1045.706	69.185	-14.938
1060.916	69.267	-14.746
1076.347	69.350	-14.708
1092.003	69.438	-14.293
1107.887	69.515	-14.087
1124.001	69.621	-13.852
1140.350	69.710	-13.606
1156.937	69.771	-13.239
1173.765	69.870	-13.175
1190.838	69.935	-12.717
1208.159	70.092	-11.883
1225.732	70.205	-12.331
1243.561	70.339	-12.398
1261.649	70.407	-11.971
1280.000	70.496	-12.180
1298.618	70.578	-11.799
1317.507	70.686	-11.377
1336.670	70.793	-11.100
1356.113	70.883	-11.044
1375.838	71.037	-10.935
1395.850	71.091	-10.531
1416.153	71.176	-9.446
1436.751	71.383	-9.273
1457.649	71.549	-9.216
1478.851	71.734	-8.844
1500.362	71.935	-8.577
1522.185	72.148	-8.267
1544.326	72.405	-7.918
1566.789	72.642	-7.532
1589.578	72.991	-6.732
1612.699	73.265	-6.235
1636.156	73.388	-6.428
1659.955	73.408	-6.423
1684.099	73.403	-6.217
1708.595	73.469	-5.988
1733.447	73.614	-6.078
1758.661	73.822	-6.294
1784.241	74.112	-6.455
1810.193	74.509	-5.823
1836.523	74.905	-6.146
1863.236	75.326	-6.568
1890.338	75.758	-7.293
1917.833	76.199	-8.150
1945.729	76.597	-9.507
1974.030	77.094	-10.439
2002.743	77.545	-12.471
2031.873	77.997	-14.893
2061.428	78.364	-17.493
2091.412	78.759	-20.488
2121.832	79.017	-23.873
2152.695	79.195	-28.035
2184.007	79.241	-31.427
2215.774	79.300	-35.043
2248.003	79.276	-38.742
2280.701	79.141	-42.339
2313.874	78.943	-45.622
2347.530	78.661	-47.815
2381.676	78.373	-50.139
2416.318	78.084	-51.701
2451.464	77.781	-53.092
2487.122	77.471	-53.813
2523.298	77.264	-54.412
2560.000	76.963	-54.818
2597.236	76.773	-54.910
2635.014	76.571	-55.115
2673.341	76.378	-55.104
2712.226	76.105	-55.023
2751.676	75.972	-54.412
2791.700	75.831	-53.662
2832.306	75.717	-53.309
2873.503	75.649	-52.320
2915.299	75.598	-52.626
2957.703	75.551	-51.706
3000.724	75.504	-51.101
3044.370	75.482	-50.710
3088.652	75.423	-50.783
3133.577	75.403	-50.283
3179.156	75.416	-49.813
3225.398	75.397	-49.492
3272.312	75.415	-49.057
3319.909	75.349	-49.089
3368.198	75.322	-48.574
3417.190	75.301	-47.987
3466.894	75.261	-47.772
3517.321	75.182	-46.942
3568.482	75.124	-45.937
3620.387	75.062	-44.971
3673.046	75.123	-44.171
3726.472	75.069	-43.243
3780.675	75.070	-42.098
3835.666	75.130	-41.267
3891.457	75.145	-40.057
3948.060	75.196	-38.261
4005.486	75.336	-36.327
4063.747	75.574	-35.415
4122.855	75.709	-34.008
4182.824	75.885	-32.530
4243.664	76.051	-32.000
4305.390	76.171	-30.813
4368.013	76.320	-30.272
4431.547	76.533	-29.028
4496.005	76.694	-28.999
4561.401	76.841	-28.522
4627.749	77.076	-28.756
4695.061	77.202	-29.147
4763.352	77.317	-29.413
4832.637	77.469	-29.550
4902.929	77.513	-30.194
4974.244	77.564	-29.909
5046.596	77.682	-29.627
5120.000	77.987	-28.961
5194.472	78.353	-28.771
5270.027	78.742	-30.863
5346.682	78.927	-33.863
5424.451	78.872	-37.769
5503.352	78.505	-41.017
5583.399	77.935	-42.463
5664.612	77.354	-43.289
5747.006	76.737	-42.773
5830.598	76.185	-41.593
5915.406	75.650	-40.079
6001.447	75.258	-37.377
6088.740	74.856	-34.463
6177.303	74.642	-31.256
6267.154	74.505	-27.885
6358.312	74.346	-24.492
6450.796	74.331	-21.323
6544.625	74.396	-17.573
6639.818	74.585	-14.798
6736.397	74.720	-12.776
6834.380	74.875	-11.474
6933.789	74.951	-10.294
7034.643	74.922	-9.593
7136.964	74.642	-7.948
7240.773	74.295	-5.215
7346.093	74.047	-0.580
7452.944	74.058	4.607
7561.350	74.284	10.538
7671.332	74.623	15.716
7782.915	75.295	20.464
7896.120	75.971	23.573
8010.971	76.777	24.964
8127.493	77.451	25.739
8245.711	78.219	24.494
8365.647	78.790	22.328
8487.328	79.107	19.529
8610.779	79.352	17.903
8736.026	79.585	16.510
8863.095	79.865	14.829
8992.011	80.257	13.704
9122.803	80.793	11.203
9255.497	81.303	5.619
9390.121	81.440	-1.435
9526.704	81.124	-8.411
9665.273	80.619	-14.998
9805.857	79.781	-22.318
9948.487	78.401	-26.077
10093.191	77.028	-27.214
10240.000	75.797	-25.771
10388.944	74.901	-22.899
10540.055	74.047	-20.159
10693.363	73.391	-17.416
10848.902	72.779	-15.500
11006.703	72.151	-14.369
11166.799	71.613	-12.874
11329.224	70.846	-12.724
11494.012	69.758	-11.362
11661.195	68.677	-9.028
11830.812	67.583	-5.280
12002.895	66.506	-0.052
12177.480	65.531	6.496
12354.606	64.823	14.353
12534.309	64.382	21.898
12716.624	64.038	29.779
12901.592	63.946	36.393
13089.250	63.762	42.148
13279.637	63.754	47.342
13472.794	63.568	51.466
13668.760	63.255	56.012
13867.577	62.797	61.170
14069.285	62.519	67.504
14273.928	62.881	73.013
14481.547	63.573	74.909
14692.186	64.015	70.784
14905.889	63.604	67.222
15122.700	62.623	65.298
15342.664	61.502	67.578
15565.829	60.316	72.185
15792.239	59.083	78.792
16021.942	57.986	86.266
16254.986	57.664	93.893
16491.422	57.760	96.369
16731.295	58.055	96.663
16974.656	57.885	96.047
17221.559	57.469	94.441
17472.053	56.928	93.842
17726.189	56.269	93.014
17984.021	55.754	93.060
18245.605	55.465	90.876
18510.994	55.188	80.808
18780.242	53.199	62.133
19053.408	45.465	55.049
19330.547	48.513	89.840
19611.715	45.676	56.177
19896.975	39.429	45.503
