* Measurement data measured by REW V5.20
* Source: Mic in at front panel (Pink) (Realtek(R) Audio), MICROPHONE (Master Volume), L, volume: 0.250
* Format: 256k Log Swept Sine, 1 sweep at -12.0 dBFS with no timing reference
* Dated: Oct 17, 2021 9:06:07 PM
* REW Settings:
*  C-weighting compensation: Off
*  Target level: 75.0 dB
* Note: TRN CS2
* Measurement: edx L Oct 17
* Smoothing: 1/12 octave
* Frequency Step: 1/48 octave
* Start Frequency: 20.000 Hz
*
* Freq(Hz)	SPL(dB)	Phase(degrees)
20.000000	100.6	48.9499
20.299999	100.7	48.1680
20.600000	100.7	47.3766
20.900000	100.8	46.5760
21.200001	100.8	45.7754
21.400000	100.8	45.2516
21.799999	100.9	44.2456
22.000000	100.9	43.7703
22.400000	100.9	42.8795
22.700001	101.0	42.2522
23.000000	101.0	41.6412
23.299999	101.0	41.0297
23.600000	101.1	40.4098
24.000000	101.1	39.5714
24.299999	101.2	38.9471
24.700001	101.2	38.1444
25.000000	101.2	37.5762
25.400000	101.2	36.8629
25.799999	101.3	36.1786
26.200001	101.3	35.4913
26.500000	101.3	34.9602
26.900000	101.4	34.2280
27.200001	101.4	33.6683
27.600000	101.4	32.9241
28.000000	101.4	32.1992
28.500000	101.5	31.3305
29.000000	101.5	30.4945
29.500000	101.5	29.6782
30.000000	101.5	28.8792
30.400000	101.5	28.2568
30.700001	101.6	27.8013
31.100000	101.6	27.2072
31.500000	101.6	26.6235
32.000000	101.6	25.9015
32.500000	101.6	25.1864
33.000000	101.6	24.4830
33.500000	101.7	23.7957
34.000000	101.7	23.1256
34.500000	101.7	22.4722
35.000000	101.7	21.8339
35.500000	101.7	21.2062
36.000000	101.7	20.5841
36.500000	101.7	19.9706
37.000000	101.7	19.3812
37.500000	101.7	18.8292
38.200001	101.7	18.1005
38.700001	101.7	17.5705
39.500000	101.7	16.6541
40.000000	101.7	16.0641
40.599998	101.7	15.3828
41.200001	101.7	14.7455
41.799999	101.7	14.1384
42.500000	101.7	13.4489
43.099998	101.7	12.8663
43.700001	101.7	12.2860
44.400002	101.7	11.6088
45.000000	101.7	11.0289
45.500000	101.6	10.5491
46.200001	101.6	9.8970
46.799999	101.6	9.3776
47.500000	101.6	8.8251
48.200001	101.6	8.2955
48.700001	101.6	7.9074
49.400002	101.6	7.3435
50.000000	101.6	6.8555
50.799999	101.6	6.2226
51.500000	101.5	5.7006
52.200001	101.5	5.2150
53.000000	101.5	4.6970
53.799999	101.5	4.2051
54.500000	101.5	3.7938
55.200001	101.4	3.3952
56.000000	101.4	2.9306
57.000000	101.4	2.2943
58.000000	101.4	1.5877
59.000000	101.4	0.8475
60.000000	101.3	0.1357
60.799999	101.3	-0.3845
61.500000	101.3	-0.7977
62.200001	101.2	-1.1631
63.000000	101.2	-1.5163
64.000000	101.1	-1.8796
65.000000	101.1	-2.1754
66.000000	101.1	-2.4091
67.000000	101.0	-2.5936
68.000000	101.0	-2.7856
69.000000	100.9	-3.0866
70.000000	100.9	-3.5082
71.000000	100.9	-4.0317
72.000000	100.9	-4.6219
73.000000	100.9	-5.1577
74.000000	100.9	-5.6273
75.000000	100.9	-6.1113
76.199997	100.9	-6.7007
77.500000	100.8	-7.2852
78.800003	100.8	-7.8309
80.000000	100.8	-8.3524
81.199997	100.7	-8.9104
82.500000	100.7	-9.5254
83.800003	100.6	-10.1119
85.000000	100.6	-10.6298
86.199997	100.6	-11.1227
87.500000	100.5	-11.6124
88.500000	100.5	-11.9608
90.000000	100.4	-12.4529
91.199997	100.3	-12.8306
92.500000	100.3	-13.2305
93.800003	100.2	-13.6152
95.000000	100.2	-13.9507
96.199997	100.1	-14.2669
97.500000	100.1	-14.5928
98.800003	100.0	-14.9093
100.000000	100.0	-15.1962
101.500000	99.9	-15.5439
103.000000	99.9	-15.8771
104.400002	99.8	-16.1789
106.000000	99.8	-16.5157
107.500000	99.7	-16.8221
109.000000	99.6	-17.1227
110.599998	99.6	-17.4468
112.000000	99.5	-17.7380
113.800003	99.5	-18.1010
115.000000	99.4	-18.3038
117.199997	99.3	-18.5425
118.000000	99.3	-18.5977
120.599998	99.2	-18.7769
122.000000	99.2	-18.8753
124.099998	99.1	-19.0287
125.000000	99.0	-19.1141
126.500000	99.0	-19.2905
128.000000	99.0	-19.4971
131.500000	98.9	-20.0204
132.000000	98.8	-20.0973
134.000000	98.8	-20.4085
136.000000	98.7	-20.7151
138.000000	98.6	-20.9945
140.000000	98.6	-21.2312
143.000000	98.4	-21.5112
145.000000	98.4	-21.6622
147.500000	98.3	-21.8154
150.000000	98.2	-21.9158
152.500000	98.1	-21.9510
155.000000	98.0	-21.9368
157.500000	97.9	-21.9145
160.000000	97.9	-21.9310
162.500000	97.8	-22.0081
165.000000	97.7	-22.1309
167.500000	97.7	-22.2633
170.000000	97.6	-22.3726
172.500000	97.5	-22.4512
175.000000	97.5	-22.5170
177.500000	97.4	-22.5902
180.000000	97.3	-22.6777
182.500000	97.3	-22.7762
185.000000	97.2	-22.8774
187.500000	97.1	-22.9728
190.000000	97.1	-23.0589
192.500000	97.0	-23.1343
195.000000	96.9	-23.1949
197.500000	96.9	-23.2345
200.000000	96.8	-23.2472
203.000000	96.7	-23.2299
206.000000	96.6	-23.2015
209.000000	96.6	-23.1869
212.000000	96.5	-23.1813
214.000000	96.4	-23.1680
218.000000	96.3	-23.0820
220.000000	96.3	-23.0090
224.000000	96.2	-22.8463
227.000000	96.1	-22.7363
230.000000	96.0	-22.6370
233.000000	96.0	-22.5413
236.000000	95.9	-22.4486
240.000000	95.8	-22.3303
243.000000	95.7	-22.2368
247.000000	95.6	-22.0829
250.000000	95.6	-21.9307
254.000000	95.5	-21.6705
258.000000	95.4	-21.3824
262.000000	95.3	-21.1362
265.000000	95.3	-20.9860
269.000000	95.2	-20.7883
272.000000	95.1	-20.6167
276.000000	95.1	-20.3511
280.000000	95.0	-20.0605
285.000000	94.9	-19.7088
290.000000	94.9	-19.4366
295.000000	94.8	-19.2476
300.000000	94.7	-19.0516
304.000000	94.7	-18.8544
307.000000	94.6	-18.6887
311.000000	94.6	-18.4595
315.000000	94.5	-18.2265
320.000000	94.4	-17.9122
325.000000	94.3	-17.5538
330.000000	94.2	-17.1690
335.000000	94.2	-16.7867
340.000000	94.1	-16.4201
345.000000	94.0	-16.0607
350.000000	94.0	-15.6921
355.000000	93.9	-15.3096
360.000000	93.8	-14.9169
365.000000	93.8	-14.5179
370.000000	93.7	-14.1146
375.000000	93.6	-13.7062
382.000000	93.6	-13.1237
387.000000	93.5	-12.7020
395.000000	93.4	-12.0216
400.000000	93.4	-11.5946
406.000000	93.3	-11.0859
412.000000	93.2	-10.5823
418.000000	93.2	-10.0671
425.000000	93.1	-9.4292
431.000000	93.1	-8.8619
437.000000	93.0	-8.3022
444.000000	93.0	-7.6729
450.000000	93.0	-7.1676
455.000000	92.9	-6.7876
462.000000	92.9	-6.3056
468.000000	92.8	-5.8859
475.000000	92.8	-5.3480
482.000000	92.7	-4.7773
487.000000	92.7	-4.3647
494.000000	92.6	-3.7666
500.000000	92.6	-3.2221
508.000000	92.5	-2.4824
515.000000	92.5	-1.8518
522.000000	92.4	-1.2271
530.000000	92.4	-0.4899
538.000000	92.4	0.2726
545.000000	92.3	0.9437
552.000000	92.3	1.6145
560.000000	92.3	2.3719
570.000000	92.2	3.2960
580.000000	92.2	4.2201
590.000000	92.1	5.1631
600.000000	92.1	6.1382
608.000000	92.1	6.9292
615.000000	92.1	7.6182
622.000000	92.1	8.3138
630.000000	92.0	9.1365
640.000000	92.0	10.1983
650.000000	92.0	11.2686
660.000000	92.0	12.3208
670.000000	92.1	13.2982
680.000000	92.1	14.1969
690.000000	92.1	15.0754
700.000000	92.1	15.9790
710.000000	92.1	16.9159
720.000000	92.1	17.8666
730.000000	92.1	18.8219
740.000000	92.2	19.7845
750.000000	92.2	20.7568
762.000000	92.2	21.9359
775.000000	92.3	23.2217
788.000000	92.3	24.5095
800.000000	92.4	25.7089
812.000000	92.5	26.9122
825.000000	92.6	28.1550
838.000000	92.7	29.2679
850.000000	92.8	30.2011
862.000000	92.9	31.0923
875.000000	93.0	32.0217
885.000000	93.1	32.6885
900.000000	93.3	33.5254
912.000000	93.4	33.9909
925.000000	93.5	34.2688
938.000000	93.6	34.4502
950.000000	93.6	34.8100
962.000000	93.6	35.4770
975.000000	93.7	36.2501
988.000000	93.8	36.7011
1000.000000	93.9	36.8634
1015.000000	93.9	37.2037
1030.000000	93.8	38.1678
1044.000000	93.8	39.6182
1060.000000	93.9	41.4901
1075.000000	94.0	43.0980
1090.000000	94.2	44.4376
1106.000000	94.4	45.5797
1120.000000	94.6	46.3891
1138.000000	94.8	47.2573
1150.000000	95.0	47.7681
1172.000000	95.2	48.6308
1180.000000	95.3	48.9309
1206.000000	95.6	49.8127
1220.000000	95.8	50.1793
1241.000000	96.0	50.6055
1250.000000	96.1	50.7670
1265.000000	96.2	51.0320
1280.000000	96.4	51.3028
1315.000000	96.7	51.9744
1320.000000	96.8	52.0712
1340.000000	96.9	52.4542
1360.000000	97.1	52.8472
1380.000000	97.3	53.2822
1400.000000	97.5	53.7798
1430.000000	97.9	54.5386
1450.000000	98.1	54.9548
1475.000000	98.4	55.3859
1500.000000	98.6	55.7749
1525.000000	98.9	56.1611
1550.000000	99.1	56.5688
1575.000000	99.4	56.9796
1600.000000	99.6	57.2971
1625.000000	99.9	57.4644
1650.000000	100.2	57.5226
1675.000000	100.4	57.5176
1700.000000	100.7	57.4587
1725.000000	100.9	57.3340
1750.000000	101.2	57.1576
1775.000000	101.4	56.9619
1800.000000	101.7	56.7325
1825.000000	102.0	56.3906
1850.000000	102.3	55.8860
1875.000000	102.5	55.2242
1900.000000	102.8	54.4311
1925.000000	103.1	53.5324
1950.000000	103.4	52.5305
1975.000000	103.7	51.3807
2000.000000	104.0	50.0292
2030.000000	104.4	48.1348
2060.000000	104.7	45.9920
2090.000000	105.0	43.6527
2120.000000	105.2	41.1709
2140.000000	105.3	39.4817
2180.000000	105.5	36.1490
2200.000000	105.5	34.5339
2240.000000	105.5	31.4755
2270.000000	105.5	29.4476
2300.000000	105.4	27.7632
2330.000000	105.4	26.4516
2360.000000	105.3	25.4125
2400.000000	105.3	24.1551
2430.000000	105.4	23.1615
2470.000000	105.4	21.7284
2500.000000	105.4	20.6038
2540.000000	105.4	19.1122
2580.000000	105.5	17.6528
2620.000000	105.5	16.1376
2650.000000	105.5	14.9348
2690.000000	105.4	13.3097
2720.000000	105.4	12.1482
2760.000000	105.3	10.7225
2800.000000	105.3	9.4268
2850.000000	105.1	7.9896
2900.000000	105.0	6.7950
2950.000000	104.8	5.9275
3000.000000	104.7	5.3795
3040.000000	104.6	5.1041
3070.000000	104.6	4.9785
3110.000000	104.5	4.9164
3150.000000	104.5	4.9286
3200.000000	104.6	4.9144
3250.000000	104.6	4.7454
3300.000000	104.7	4.4081
3350.000000	104.8	3.9988
3400.000000	104.9	3.5725
3450.000000	105.1	3.1129
3500.000000	105.2	2.5955
3550.000000	105.5	1.9393
3600.000000	105.7	0.9913
3650.000000	106.0	-0.3962
3700.000000	106.3	-2.3001
3750.000000	106.6	-4.7290
3820.000000	106.9	-9.0063
3870.000000	107.1	-12.6251
3950.000000	107.2	-19.1155
4000.000000	107.1	-23.4766
4060.000000	106.9	-28.8641
4120.000000	106.6	-34.1776
4180.000000	106.2	-39.1381
4250.000000	105.5	-44.1827
4310.000000	104.8	-47.6705
4370.000000	104.1	-50.3317
4440.000000	103.2	-52.5067
4500.000000	102.5	-53.7010
4550.000000	101.8	-54.2891
4620.000000	101.0	-54.5786
4680.000000	100.3	-54.3715
4750.000000	99.5	-53.6343
4820.000000	98.7	-52.4678
4870.000000	98.2	-51.4445
4940.000000	97.5	-49.8101
5000.000000	97.0	-48.2565
5080.000000	96.3	-45.9619
5150.000000	95.8	-43.7076
5220.000000	95.3	-41.2298
5300.000000	94.7	-38.1464
5380.000000	94.2	-34.7750
5450.000000	93.9	-31.6093
5520.000000	93.5	-28.3976
5600.000000	93.3	-24.9635
5700.000000	93.0	-21.0728
5800.000000	92.7	-17.2415
5900.000000	92.4	-13.2498
6000.000000	92.2	-9.0601
6080.000000	92.0	-5.6080
6150.000000	91.9	-2.5607
6220.000000	91.9	0.4794
6300.000000	91.9	3.9403
6400.000000	91.9	8.2720
6500.000000	92.0	12.6041
6600.000000	92.1	16.8799
6700.000000	92.4	21.0554
6800.000000	92.7	25.1324
6900.000000	93.1	29.0872
7000.000000	93.6	32.8372
7100.000000	94.1	36.2869
7200.000000	94.9	39.3510
7300.000000	95.7	41.8858
7400.000000	96.7	43.6277
7500.000000	97.8	44.2016
7620.000000	99.2	42.6761
7750.000000	100.7	37.2276
7880.000000	101.8	27.0567
8000.000000	102.3	14.3372
8120.000000	102.1	0.9811
8250.000000	101.2	-10.9877
8380.000000	99.8	-18.5767
8500.000000	98.3	-21.7698
8620.000000	96.8	-22.1665
8750.000000	95.3	-20.4818
8850.000000	94.3	-18.1876
9000.000000	93.1	-13.6747
9120.000000	92.3	-9.4691
9250.000000	91.6	-4.5365
9380.000000	91.1	0.6780
9500.000000	90.8	5.6498
9620.000000	90.6	10.6993
9750.000000	90.5	16.2203
9880.000000	90.6	21.7522
10000.000000	90.8	26.8086
10150.000000	91.3	32.9836
10300.000000	92.1	38.8467
10440.000000	93.2	43.7590
10600.000000	94.9	48.1394
10750.000000	96.9	49.9982
10900.000000	98.9	47.9236
11060.000000	100.9	39.0579
11200.000000	101.9	24.8978
11380.000000	102.1	1.7811
11500.000000	101.4	-12.2570
11720.000000	99.0	-27.7223
11800.000000	97.8	-29.9340
12060.000000	94.0	-28.8233
12200.000000	92.2	-25.1874
12410.000000	90.1	-17.9697
12500.000000	89.3	-14.5296
12650.000000	88.4	-8.5607
12800.000000	87.7	-2.4355
13150.000000	87.0	11.9001
13200.000000	86.9	13.9139
13400.000000	87.0	21.7637
13600.000000	87.5	29.0853
13800.000000	88.3	35.4543
14000.000000	89.5	40.1436
14300.000000	91.6	41.4766
14500.000000	92.8	37.0172
14750.000000	93.5	27.7278
15000.000000	93.7	24.1884
15250.000000	95.0	29.5960
15500.000000	97.1	27.9213
15750.000000	98.5	10.4927
16000.000000	98.9	-15.5533
16250.000000	98.4	-43.5178
16500.000000	97.1	-68.9390
16750.000000	94.7	-86.9216
17000.000000	91.6	-95.5238
17250.000000	88.0	-96.6085
17500.000000	84.3	-93.0132
17750.000000	80.7	-86.6863
18000.000000	77.4	-78.4998
18250.000000	74.6	-68.7624
18500.000000	72.2	-57.8810
18750.000000	70.5	-46.8543
19000.000000	69.5	-37.3348
19250.000000	69.1	-31.0363
19500.000000	69.0	-28.5929
19750.000000	68.8	-28.8400
