* Measurement data measured by REW V5.20.4
* Source: Mic in at front panel (Pink) (Realtek(R) Audio), MICROPHONE (Master Volume), L, volume: 0.250
* Format: 256k Log Swept Sine, 1 sweep at -12.0 dBFS with no timing reference
* Dated: Apr 9, 2022 12:58:31 PM
* REW Settings:
*  C-weighting compensation: Off
*  Target level: 75.0 dB
* Note: TRN VX Pro Tanya L
* Measurement: TRN VX Pro Tanya L
* Smoothing: 1/12 octave
* Frequency Step: 1/48 octave
* Start Frequency: 20.000 Hz
*
* Freq(Hz)	SPL(dB)	Phase(degrees)
20.000000	100.682	52.1703
20.299999	100.738	51.3841
20.600000	100.790	50.6025
20.900000	100.836	49.8254
21.200001	100.879	49.0555
21.400000	100.908	48.5485
21.799999	100.966	47.5534
22.000000	100.996	47.0665
22.400000	101.058	46.1142
22.700001	101.104	45.4174
23.000000	101.151	44.7330
23.299999	101.198	44.0586
23.600000	101.244	43.3926
24.000000	101.304	42.5161
24.299999	101.347	41.8673
24.700001	101.398	41.0156
25.000000	101.433	40.3879
25.400000	101.475	39.5666
25.799999	101.514	38.7617
26.200001	101.552	37.9708
26.500000	101.578	37.3870
26.900000	101.608	36.6245
27.200001	101.627	36.0686
27.600000	101.649	35.3524
28.000000	101.672	34.6626
28.500000	101.705	33.8195
29.000000	101.743	32.9688
29.500000	101.780	32.0971
30.000000	101.812	31.2181
30.400000	101.833	30.5280
30.700001	101.848	30.0250
31.100000	101.868	29.3746
31.500000	101.888	28.7427
32.000000	101.910	27.9678
32.500000	101.928	27.2020
33.000000	101.945	26.4447
33.500000	101.962	25.6968
34.000000	101.980	24.9565
34.500000	101.998	24.2232
35.000000	102.015	23.5005
35.500000	102.033	22.7939
36.000000	102.052	22.1053
36.500000	102.071	21.4319
37.000000	102.088	20.7708
37.500000	102.098	20.1244
38.200001	102.101	19.2566
38.700001	102.096	18.6664
39.500000	102.085	17.7542
40.000000	102.080	17.1903
40.599998	102.078	16.5154
41.200001	102.078	15.8466
41.799999	102.080	15.1875
42.500000	102.084	14.4303
43.099998	102.089	13.7923
43.700001	102.094	13.1686
44.400002	102.097	12.4600
45.000000	102.098	11.8641
45.500000	102.097	11.3730
46.200001	102.094	10.6965
46.799999	102.087	10.1322
47.500000	102.075	9.4925
48.200001	102.058	8.8674
48.700001	102.043	8.4269
49.400002	102.020	7.8171
50.000000	102.002	7.3005
50.799999	101.984	6.6206
51.500000	101.972	6.0364
52.200001	101.961	5.4655
53.000000	101.947	4.8310
53.799999	101.933	4.2185
54.500000	101.923	3.7023
55.200001	101.916	3.2009
56.000000	101.908	2.6355
57.000000	101.894	1.9221
58.000000	101.867	1.1934
59.000000	101.828	0.4543
60.000000	101.779	-0.2910
60.799999	101.736	-0.8962
61.500000	101.693	-1.4295
62.200001	101.645	-1.9330
63.000000	101.587	-2.3998
64.000000	101.529	-2.7822
65.000000	101.501	-3.0741
66.000000	101.489	-3.3885
67.000000	101.489	-3.7554
68.000000	101.494	-4.2772
69.000000	101.477	-4.9666
70.000000	101.427	-5.6607
71.000000	101.365	-6.2215
72.000000	101.319	-6.6456
73.000000	101.308	-7.0616
74.000000	101.319	-7.5912
75.000000	101.326	-8.2025
76.199997	101.314	-8.9004
77.500000	101.284	-9.5453
78.800003	101.245	-10.1193
80.000000	101.207	-10.6675
81.199997	101.165	-11.2784
82.500000	101.112	-11.9878
83.800003	101.053	-12.6909
85.000000	100.995	-13.2909
86.199997	100.933	-13.8300
87.500000	100.859	-14.3481
88.500000	100.797	-14.7061
90.000000	100.699	-15.1946
91.199997	100.622	-15.5642
92.500000	100.544	-15.9528
93.800003	100.469	-16.3093
95.000000	100.402	-16.5844
96.199997	100.334	-16.7925
97.500000	100.255	-16.9333
98.800003	100.171	-16.9819
100.000000	100.096	-16.9550
101.500000	100.022	-16.8563
103.000000	99.986	-16.7257
104.400002	99.987	-16.6135
106.000000	100.010	-16.5524
107.500000	100.032	-16.6196
109.000000	100.040	-16.8671
110.599998	100.040	-17.3523
112.000000	100.041	-17.9081
113.800003	100.050	-18.5804
115.000000	100.055	-18.8329
117.199997	100.059	-18.7148
118.000000	100.063	-18.5829
120.599998	100.042	-18.8809
122.000000	99.964	-19.6268
124.099998	99.801	-20.8865
125.000000	99.740	-21.3636
126.500000	99.664	-22.0249
128.000000	99.608	-22.5144
131.500000	99.480	-23.2719
132.000000	99.460	-23.3723
134.000000	99.384	-23.8018
136.000000	99.315	-24.2460
138.000000	99.244	-24.6464
140.000000	99.165	-24.9791
143.000000	99.045	-25.4053
145.000000	98.978	-25.7036
147.500000	98.900	-26.1040
150.000000	98.817	-26.4759
152.500000	98.727	-26.7845
155.000000	98.639	-27.0297
157.500000	98.559	-27.2407
160.000000	98.486	-27.4587
162.500000	98.412	-27.6993
165.000000	98.328	-27.9537
167.500000	98.227	-28.1931
170.000000	98.109	-28.3820
172.500000	97.982	-28.5079
175.000000	97.854	-28.5959
177.500000	97.732	-28.6674
180.000000	97.623	-28.7063
182.500000	97.538	-28.6843
185.000000	97.474	-28.5953
187.500000	97.425	-28.4800
190.000000	97.384	-28.4019
192.500000	97.348	-28.3738
195.000000	97.316	-28.3617
197.500000	97.285	-28.3524
200.000000	97.253	-28.3646
203.000000	97.211	-28.4486
206.000000	97.166	-28.6357
209.000000	97.110	-28.9053
212.000000	97.040	-29.1920
214.000000	96.986	-29.3607
218.000000	96.867	-29.5987
220.000000	96.807	-29.6679
224.000000	96.694	-29.7494
227.000000	96.618	-29.7961
230.000000	96.544	-29.8431
233.000000	96.472	-29.8877
236.000000	96.399	-29.9277
240.000000	96.299	-29.9750
243.000000	96.222	-30.0008
247.000000	96.115	-30.0004
250.000000	96.036	-29.9568
254.000000	95.937	-29.8334
258.000000	95.851	-29.6799
262.000000	95.774	-29.5681
265.000000	95.714	-29.5154
269.000000	95.629	-29.4441
272.000000	95.564	-29.3660
276.000000	95.478	-29.2250
280.000000	95.399	-29.0588
285.000000	95.315	-28.8560
290.000000	95.242	-28.7272
295.000000	95.164	-28.6842
300.000000	95.077	-28.6382
304.000000	95.005	-28.5599
307.000000	94.952	-28.4812
311.000000	94.882	-28.3638
315.000000	94.810	-28.2391
320.000000	94.716	-28.0585
325.000000	94.626	-27.8338
330.000000	94.541	-27.5817
335.000000	94.461	-27.3295
340.000000	94.381	-27.0916
345.000000	94.302	-26.8603
350.000000	94.227	-26.6185
355.000000	94.157	-26.3611
360.000000	94.088	-26.0933
365.000000	94.018	-25.8203
370.000000	93.946	-25.5425
375.000000	93.876	-25.2576
382.000000	93.785	-24.8469
387.000000	93.723	-24.5480
395.000000	93.628	-24.0597
400.000000	93.569	-23.7492
406.000000	93.500	-23.3794
412.000000	93.431	-23.0154
418.000000	93.363	-22.6416
425.000000	93.288	-22.1689
431.000000	93.232	-21.7405
437.000000	93.182	-21.3166
444.000000	93.129	-20.8458
450.000000	93.088	-20.4783
455.000000	93.055	-20.2141
462.000000	93.003	-19.8945
468.000000	92.952	-19.6141
475.000000	92.889	-19.2397
482.000000	92.829	-18.8336
487.000000	92.786	-18.5385
494.000000	92.723	-18.1039
500.000000	92.672	-17.6981
508.000000	92.612	-17.1417
515.000000	92.564	-16.6714
522.000000	92.515	-16.2080
530.000000	92.459	-15.6578
538.000000	92.408	-15.0847
545.000000	92.367	-14.5800
552.000000	92.330	-14.0760
560.000000	92.292	-13.5105
570.000000	92.246	-12.8272
580.000000	92.200	-12.1440
590.000000	92.151	-11.4436
600.000000	92.105	-10.7161
608.000000	92.076	-10.1268
615.000000	92.053	-9.6162
622.000000	92.031	-9.0997
630.000000	92.007	-8.4827
640.000000	91.983	-7.6793
650.000000	91.970	-6.8705
660.000000	91.972	-6.0841
670.000000	91.986	-5.3780
680.000000	91.999	-4.7585
690.000000	92.004	-4.1680
700.000000	92.004	-3.5605
710.000000	92.006	-2.9285
720.000000	92.014	-2.2944
730.000000	92.028	-1.6740
740.000000	92.047	-1.0704
750.000000	92.070	-0.4911
762.000000	92.106	0.1508
775.000000	92.156	0.7269
788.000000	92.210	1.0908
800.000000	92.246	1.1749
812.000000	92.237	1.0420
825.000000	92.138	0.9116
838.000000	91.949	1.3506
850.000000	91.769	2.5881
862.000000	91.670	4.3644
875.000000	91.674	6.3167
885.000000	91.726	7.6248
900.000000	91.838	9.2620
912.000000	91.939	10.3747
925.000000	92.057	11.4176
938.000000	92.178	12.2963
950.000000	92.286	12.9857
962.000000	92.388	13.5983
975.000000	92.494	14.2146
988.000000	92.596	14.8041
1000.000000	92.688	15.3370
1015.000000	92.803	16.0069
1030.000000	92.927	16.6625
1044.000000	93.052	17.2019
1060.000000	93.199	17.6765
1075.000000	93.330	18.0145
1090.000000	93.455	18.3031
1106.000000	93.585	18.5781
1120.000000	93.697	18.7960
1138.000000	93.834	19.0555
1150.000000	93.921	19.2213
1172.000000	94.077	19.5217
1180.000000	94.135	19.6311
1206.000000	94.337	19.9199
1220.000000	94.451	19.9795
1241.000000	94.610	19.9561
1250.000000	94.673	19.9264
1265.000000	94.770	19.8708
1280.000000	94.860	19.8143
1315.000000	95.057	19.6816
1320.000000	95.084	19.6589
1340.000000	95.191	19.5553
1360.000000	95.290	19.4500
1380.000000	95.384	19.3794
1400.000000	95.480	19.3677
1430.000000	95.649	19.3619
1450.000000	95.772	19.2714
1475.000000	95.927	19.0770
1500.000000	96.085	18.8539
1525.000000	96.251	18.6478
1550.000000	96.423	18.4900
1575.000000	96.591	18.3676
1600.000000	96.726	18.1893
1625.000000	96.785	17.9051
1650.000000	96.754	17.5627
1675.000000	96.663	17.2154
1700.000000	96.559	16.8796
1725.000000	96.482	16.5525
1750.000000	96.449	16.2562
1775.000000	96.461	16.0327
1800.000000	96.511	15.8771
1825.000000	96.584	15.7196
1850.000000	96.662	15.5198
1875.000000	96.736	15.2938
1900.000000	96.802	15.0774
1925.000000	96.861	14.9061
1950.000000	96.917	14.7905
1975.000000	96.976	14.6925
2000.000000	97.033	14.5630
2030.000000	97.091	14.3622
2060.000000	97.131	14.1581
2090.000000	97.154	13.9916
2120.000000	97.158	13.8951
2140.000000	97.153	13.8982
2180.000000	97.144	14.1237
2200.000000	97.149	14.3237
2240.000000	97.185	14.7793
2270.000000	97.229	15.1066
2300.000000	97.280	15.4010
2330.000000	97.335	15.6675
2360.000000	97.393	15.8968
2400.000000	97.466	16.1254
2430.000000	97.514	16.2725
2470.000000	97.566	16.5110
2500.000000	97.599	16.7526
2540.000000	97.643	17.1947
2580.000000	97.702	17.7581
2620.000000	97.780	18.3320
2650.000000	97.845	18.7307
2690.000000	97.931	19.2639
2720.000000	97.997	19.7130
2760.000000	98.097	20.3824
2800.000000	98.219	21.0767
2850.000000	98.401	21.8961
2900.000000	98.609	22.5885
2950.000000	98.828	23.1495
3000.000000	99.057	23.5758
3040.000000	99.246	23.8086
3070.000000	99.390	23.9418
3110.000000	99.591	24.0974
3150.000000	99.811	24.2118
3200.000000	100.113	24.1979
3250.000000	100.431	23.9130
3300.000000	100.741	23.3419
3350.000000	101.033	22.5509
3400.000000	101.304	21.5667
3450.000000	101.544	20.3838
3500.000000	101.747	19.0402
3550.000000	101.918	17.5540
3600.000000	102.056	15.8971
3650.000000	102.153	14.0715
3700.000000	102.199	12.1607
3750.000000	102.194	10.2963
3820.000000	102.117	7.9249
3870.000000	102.018	6.4927
3950.000000	101.797	4.8552
4000.000000	101.632	4.2789
4060.000000	101.412	4.0402
4120.000000	101.174	4.3249
4180.000000	100.933	5.1426
4250.000000	100.674	6.6976
4310.000000	100.498	8.4667
4370.000000	100.392	10.4945
4440.000000	100.377	12.9128
4500.000000	100.449	14.8373
4550.000000	100.558	16.2610
4620.000000	100.768	17.9071
4680.000000	100.984	18.9833
4750.000000	101.269	19.8513
4820.000000	101.579	20.2443
4870.000000	101.803	20.1998
4940.000000	102.099	19.6962
5000.000000	102.317	18.9109
5080.000000	102.531	17.5491
5150.000000	102.638	16.3026
5220.000000	102.678	15.1959
5300.000000	102.662	14.2524
5380.000000	102.608	13.6801
5450.000000	102.542	13.3730
5520.000000	102.450	13.1959
5600.000000	102.312	13.2412
5700.000000	102.122	13.7782
5800.000000	101.958	14.7692
5900.000000	101.834	16.0942
6000.000000	101.757	17.7312
6080.000000	101.734	19.2274
6150.000000	101.744	20.6285
6220.000000	101.781	22.0834
6300.000000	101.853	23.8071
6400.000000	101.986	26.0768
6500.000000	102.175	28.4619
6600.000000	102.427	30.8954
6700.000000	102.744	33.3218
6800.000000	103.133	35.7272
6900.000000	103.605	38.0671
7000.000000	104.170	40.2334
7100.000000	104.832	42.1038
7200.000000	105.599	43.5614
7300.000000	106.484	44.4238
7400.000000	107.480	44.3875
7500.000000	108.545	43.0590
7620.000000	109.811	39.1602
7750.000000	110.974	31.4018
7880.000000	111.691	19.9462
8000.000000	111.823	7.4492
8120.000000	111.438	-4.6094
8250.000000	110.534	-14.9388
8380.000000	109.303	-21.5234
8500.000000	108.063	-24.5818
8620.000000	106.877	-25.4881
8750.000000	105.767	-24.9113
8850.000000	105.066	-23.8046
9000.000000	104.272	-21.6266
9120.000000	103.834	-19.8300
9250.000000	103.508	-18.1289
9380.000000	103.286	-16.8349
9500.000000	103.138	-16.0696
9620.000000	103.013	-15.7083
9750.000000	102.881	-15.6841
9880.000000	102.745	-15.9714
10000.000000	102.617	-16.5195
10150.000000	102.440	-17.6245
10300.000000	102.221	-19.2238
10440.000000	101.948	-21.1162
10600.000000	101.521	-23.4861
10750.000000	100.989	-25.5516
10900.000000	100.340	-27.1608
11060.000000	99.557	-28.1512
11200.000000	98.838	-28.3601
11380.000000	97.906	-27.7867
11500.000000	97.296	-26.9195
11720.000000	96.232	-24.4612
11800.000000	95.873	-23.3346
12060.000000	94.861	-19.2056
12200.000000	94.428	-16.9395
12410.000000	93.922	-13.8442
12500.000000	93.750	-12.7284
12650.000000	93.504	-11.2740
12800.000000	93.280	-10.4185
13150.000000	92.644	-10.7516
13200.000000	92.521	-10.9993
13400.000000	91.912	-12.1672
13600.000000	91.087	-13.1451
13800.000000	90.045	-13.3757
14000.000000	88.846	-12.4844
14300.000000	86.974	-8.7869
14500.000000	85.812	-4.8667
14750.000000	84.555	1.3394
15000.000000	83.544	8.5966
15250.000000	82.769	16.4134
15500.000000	82.199	24.1584
15750.000000	81.805	31.0234
16000.000000	81.611	36.1192
16250.000000	81.676	38.5881
16500.000000	81.966	37.5964
16750.000000	82.235	32.5737
17000.000000	82.131	24.0620
17250.000000	81.410	14.3572
17500.000000	80.031	6.5455
17750.000000	78.102	2.6743
18000.000000	75.789	3.2654
18250.000000	73.242	8.2097
18500.000000	70.589	17.4050
18750.000000	67.996	30.4461
19000.000000	65.776	45.9496
19250.000000	64.410	60.7838
19500.000000	63.997	71.1184
19750.000000	63.989	75.8626
