* Measurement data measured by REW V5.20.4
* Source: Mic in at front panel (Pink) (Realtek(R) Audio), MICROPHONE (Master Volume), L, volume: 0.250
* Format: 256k Log Swept Sine, 1 sweep at -12.0 dBFS with no timing reference
* Dated: Apr 9, 2022 1:16:33 PM
* REW Settings:
*  C-weighting compensation: Off
*  Target level: 75.0 dB
* Note: TRN VX Pro Red L
* Measurement: TRN VX Pro Red Stock L
* Smoothing: 1/12 octave
* Frequency Step: 1/48 octave
* Start Frequency: 20.000 Hz
*
* Freq(Hz)	SPL(dB)	Phase(degrees)
20.000000	93.996	70.9501
20.299999	94.081	70.2633
20.600000	94.160	69.5817
20.900000	94.233	68.9078
21.200001	94.304	68.2443
21.400000	94.350	67.8083
21.799999	94.446	66.9511
22.000000	94.494	66.5295
22.400000	94.592	65.6993
22.700001	94.665	65.0878
23.000000	94.738	64.4855
23.299999	94.810	63.8912
23.600000	94.881	63.3029
24.000000	94.974	62.5257
24.299999	95.039	61.9485
24.700001	95.121	61.1912
25.000000	95.177	60.6382
25.400000	95.248	59.9269
25.799999	95.318	59.2433
26.200001	95.390	58.5742
26.500000	95.443	58.0708
26.900000	95.511	57.3887
27.200001	95.558	56.8699
27.600000	95.613	56.1801
28.000000	95.663	55.5121
28.500000	95.722	54.7294
29.000000	95.785	53.9996
29.500000	95.852	53.2933
30.000000	95.921	52.5837
30.400000	95.975	52.0111
30.700001	96.015	51.5826
31.100000	96.067	51.0187
31.500000	96.118	50.4652
32.000000	96.176	49.7865
32.500000	96.230	49.1180
33.000000	96.281	48.4585
33.500000	96.331	47.8089
34.000000	96.381	47.1686
34.500000	96.430	46.5363
35.000000	96.479	45.9129
35.500000	96.528	45.3015
36.000000	96.577	44.7039
36.500000	96.626	44.1199
37.000000	96.671	43.5481
37.500000	96.712	42.9880
38.200001	96.757	42.2220
38.700001	96.781	41.6867
39.500000	96.812	40.8530
40.000000	96.832	40.3495
40.599998	96.858	39.7617
41.200001	96.889	39.1851
41.799999	96.920	38.6155
42.500000	96.957	37.9664
43.099998	96.989	37.4308
43.700001	97.021	36.9118
44.400002	97.054	36.3173
45.000000	97.076	35.8202
45.500000	97.091	35.4270
46.200001	97.111	34.9161
46.799999	97.130	34.4960
47.500000	97.153	33.9882
48.200001	97.170	33.4557
48.700001	97.179	33.0751
49.400002	97.189	32.5567
50.000000	97.201	32.1225
50.799999	97.225	31.5516
51.500000	97.251	31.0639
52.200001	97.276	30.5882
53.000000	97.300	30.0591
53.799999	97.319	29.5584
54.500000	97.335	29.1506
55.200001	97.351	28.7620
56.000000	97.368	28.3241
57.000000	97.385	27.7731
58.000000	97.395	27.2124
59.000000	97.400	26.6431
60.000000	97.402	26.0852
60.799999	97.402	25.6641
61.500000	97.402	25.3309
62.200001	97.406	25.0411
63.000000	97.416	24.7450
64.000000	97.431	24.3794
65.000000	97.437	24.0273
66.000000	97.434	23.7282
67.000000	97.438	23.4335
68.000000	97.446	23.0293
69.000000	97.443	22.5162
70.000000	97.426	22.0118
71.000000	97.409	21.5769
72.000000	97.402	21.2203
73.000000	97.414	20.9375
74.000000	97.445	20.6758
75.000000	97.482	20.3931
76.199997	97.519	20.0380
77.500000	97.545	19.6473
78.800003	97.560	19.2443
80.000000	97.569	18.8585
81.199997	97.579	18.4431
82.500000	97.588	17.9613
83.800003	97.592	17.4896
85.000000	97.592	17.1016
86.199997	97.589	16.7565
87.500000	97.583	16.4039
88.500000	97.575	16.1396
90.000000	97.559	15.7640
91.199997	97.549	15.4910
92.500000	97.543	15.2126
93.800003	97.543	14.9366
95.000000	97.544	14.6813
96.199997	97.544	14.4271
97.500000	97.540	14.1586
98.800003	97.530	13.9059
100.000000	97.517	13.6914
101.500000	97.502	13.4454
103.000000	97.493	13.2130
104.400002	97.493	12.9984
106.000000	97.496	12.7522
107.500000	97.498	12.5251
109.000000	97.494	12.2949
110.599998	97.483	12.0075
112.000000	97.467	11.6938
113.800003	97.442	11.2171
115.000000	97.427	10.8883
117.199997	97.412	10.3833
118.000000	97.410	10.2505
120.599998	97.394	10.1196
122.000000	97.381	10.2791
124.099998	97.371	10.5908
125.000000	97.369	10.6729
126.500000	97.364	10.6985
128.000000	97.356	10.6075
131.500000	97.335	10.2380
132.000000	97.333	10.1869
134.000000	97.328	10.0061
136.000000	97.323	9.8539
138.000000	97.320	9.6932
140.000000	97.325	9.4980
143.000000	97.341	9.1686
145.000000	97.346	8.9604
147.500000	97.335	8.7086
150.000000	97.312	8.4474
152.500000	97.295	8.2513
155.000000	97.292	8.1884
157.500000	97.300	8.1843
160.000000	97.309	8.1301
162.500000	97.318	7.9975
165.000000	97.319	7.8292
167.500000	97.302	7.6724
170.000000	97.264	7.5476
172.500000	97.216	7.4547
175.000000	97.170	7.3800
177.500000	97.134	7.3040
180.000000	97.114	7.2170
182.500000	97.114	7.1204
185.000000	97.130	7.0164
187.500000	97.152	6.9054
190.000000	97.172	6.7916
192.500000	97.188	6.6821
195.000000	97.196	6.5833
197.500000	97.196	6.4991
200.000000	97.191	6.4332
203.000000	97.184	6.3737
206.000000	97.181	6.3113
209.000000	97.177	6.2214
212.000000	97.166	6.1107
214.000000	97.156	6.0409
218.000000	97.130	5.9506
220.000000	97.120	5.9316
224.000000	97.108	5.9057
227.000000	97.107	5.8685
230.000000	97.107	5.8135
233.000000	97.108	5.7485
236.000000	97.106	5.6764
240.000000	97.100	5.5677
243.000000	97.092	5.4825
247.000000	97.076	5.3878
250.000000	97.063	5.3489
254.000000	97.051	5.3489
258.000000	97.049	5.3666
262.000000	97.053	5.3328
265.000000	97.053	5.2700
269.000000	97.045	5.1807
272.000000	97.037	5.1338
276.000000	97.026	5.1014
280.000000	97.019	5.0856
285.000000	97.023	5.0507
290.000000	97.034	4.9410
295.000000	97.037	4.7474
300.000000	97.027	4.5527
304.000000	97.016	4.4343
307.000000	97.008	4.3643
311.000000	96.996	4.2836
315.000000	96.980	4.2133
320.000000	96.958	4.1529
325.000000	96.939	4.1272
330.000000	96.925	4.1063
335.000000	96.911	4.0621
340.000000	96.894	3.9912
345.000000	96.875	3.9114
350.000000	96.855	3.8442
355.000000	96.837	3.7964
360.000000	96.817	3.7637
365.000000	96.793	3.7419
370.000000	96.765	3.7305
375.000000	96.738	3.7307
382.000000	96.702	3.7513
387.000000	96.678	3.7800
395.000000	96.640	3.8512
400.000000	96.616	3.9109
406.000000	96.586	3.9916
412.000000	96.557	4.0791
418.000000	96.528	4.1843
425.000000	96.502	4.3406
431.000000	96.488	4.4836
437.000000	96.480	4.6016
444.000000	96.473	4.6888
450.000000	96.467	4.7120
455.000000	96.459	4.6855
462.000000	96.437	4.6030
468.000000	96.406	4.5494
475.000000	96.365	4.5505
482.000000	96.323	4.6012
487.000000	96.291	4.6532
494.000000	96.242	4.7615
500.000000	96.201	4.8994
508.000000	96.153	5.1137
515.000000	96.114	5.2979
522.000000	96.073	5.4873
530.000000	96.024	5.7394
538.000000	95.977	6.0303
545.000000	95.940	6.3005
552.000000	95.906	6.5807
560.000000	95.869	6.9028
570.000000	95.824	7.2994
580.000000	95.777	7.7153
590.000000	95.726	8.1676
600.000000	95.676	8.6656
608.000000	95.642	9.0847
615.000000	95.616	9.4561
622.000000	95.590	9.8420
630.000000	95.560	10.3203
640.000000	95.529	10.9661
650.000000	95.507	11.6344
660.000000	95.498	12.2966
670.000000	95.502	12.8951
680.000000	95.505	13.4250
690.000000	95.497	13.9449
700.000000	95.484	14.5001
710.000000	95.471	15.0989
720.000000	95.463	15.7203
730.000000	95.459	16.3536
740.000000	95.457	17.0021
750.000000	95.458	17.6682
762.000000	95.462	18.4899
775.000000	95.474	19.4023
788.000000	95.494	20.3362
800.000000	95.522	21.2333
812.000000	95.564	22.1626
825.000000	95.631	23.1286
838.000000	95.709	23.9543
850.000000	95.774	24.6085
862.000000	95.827	25.2463
875.000000	95.880	25.9772
885.000000	95.924	26.5664
900.000000	95.997	27.4605
912.000000	96.062	28.1780
925.000000	96.138	28.9511
938.000000	96.223	29.6989
950.000000	96.306	30.3540
962.000000	96.392	30.9807
975.000000	96.487	31.6417
988.000000	96.586	32.2914
1000.000000	96.679	32.8877
1015.000000	96.802	33.6435
1030.000000	96.937	34.3895
1044.000000	97.077	35.0148
1060.000000	97.244	35.5882
1075.000000	97.397	36.0190
1090.000000	97.547	36.4007
1106.000000	97.706	36.7744
1120.000000	97.846	37.0769
1138.000000	98.023	37.4412
1150.000000	98.139	37.6732
1172.000000	98.352	38.0844
1180.000000	98.432	38.2301
1206.000000	98.711	38.6196
1220.000000	98.868	38.7199
1241.000000	99.096	38.7362
1250.000000	99.189	38.7158
1265.000000	99.337	38.6665
1280.000000	99.480	38.6058
1315.000000	99.806	38.4256
1320.000000	99.853	38.3913
1340.000000	100.038	38.2247
1360.000000	100.220	38.0272
1380.000000	100.400	37.8299
1400.000000	100.584	37.6538
1430.000000	100.889	37.3255
1450.000000	101.103	36.9672
1475.000000	101.373	36.3764
1500.000000	101.645	35.6851
1525.000000	101.923	34.9359
1550.000000	102.204	34.1589
1575.000000	102.476	33.3423
1600.000000	102.707	32.3963
1625.000000	102.853	31.2729
1650.000000	102.902	30.0237
1675.000000	102.881	28.7075
1700.000000	102.839	27.3477
1725.000000	102.813	25.9489
1750.000000	102.817	24.5432
1775.000000	102.851	23.1826
1800.000000	102.908	21.8733
1825.000000	102.973	20.5570
1850.000000	103.028	19.2051
1875.000000	103.064	17.8456
1900.000000	103.077	16.5260
1925.000000	103.070	15.2932
1950.000000	103.047	14.1693
1975.000000	103.014	13.1273
2000.000000	102.970	12.1298
2030.000000	102.893	11.0057
2060.000000	102.788	10.0297
2090.000000	102.661	9.2629
2120.000000	102.519	8.7468
2140.000000	102.424	8.5612
2180.000000	102.262	8.5381
2200.000000	102.208	8.6161
2240.000000	102.146	8.6881
2270.000000	102.116	8.5793
2300.000000	102.076	8.3773
2330.000000	102.021	8.1798
2360.000000	101.956	8.0390
2400.000000	101.864	7.9352
2430.000000	101.791	7.9250
2470.000000	101.689	8.0266
2500.000000	101.610	8.2009
2540.000000	101.504	8.6043
2580.000000	101.410	9.2197
2620.000000	101.339	9.9714
2650.000000	101.300	10.5874
2690.000000	101.264	11.4918
2720.000000	101.252	12.2490
2760.000000	101.264	13.3270
2800.000000	101.312	14.3992
2850.000000	101.414	15.6451
2900.000000	101.552	16.7448
2950.000000	101.716	17.7139
3000.000000	101.909	18.5115
3040.000000	102.081	18.9651
3070.000000	102.217	19.1973
3110.000000	102.407	19.3861
3150.000000	102.609	19.4288
3200.000000	102.872	19.2203
3250.000000	103.127	18.6903
3300.000000	103.353	17.8895
3350.000000	103.540	16.9420
3400.000000	103.689	15.9349
3450.000000	103.799	14.9269
3500.000000	103.877	14.0004
3550.000000	103.944	13.1656
3600.000000	104.019	12.3137
3650.000000	104.099	11.3076
3700.000000	104.168	10.0815
3750.000000	104.213	8.6624
3820.000000	104.212	6.4705
3870.000000	104.150	4.9174
3950.000000	103.942	2.8888
4000.000000	103.756	2.0658
4060.000000	103.492	1.6118
4120.000000	103.196	1.7972
4180.000000	102.895	2.6249
4250.000000	102.573	4.2955
4310.000000	102.353	6.2180
4370.000000	102.215	8.4177
4440.000000	102.178	11.0216
4500.000000	102.244	13.0608
4550.000000	102.356	14.5307
4620.000000	102.573	16.1462
4680.000000	102.796	17.0997
4750.000000	103.082	17.7155
4820.000000	103.382	17.7559
4870.000000	103.590	17.4124
4940.000000	103.850	16.4503
5000.000000	104.024	15.2646
5080.000000	104.163	13.4106
5150.000000	104.199	11.7913
5220.000000	104.170	10.3086
5300.000000	104.062	8.8177
5380.000000	103.873	7.6509
5450.000000	103.645	7.0305
5520.000000	103.379	6.8639
5600.000000	103.058	7.2155
5700.000000	102.678	8.2985
5800.000000	102.351	9.8694
5900.000000	102.081	11.7957
6000.000000	101.869	14.0675
6080.000000	101.746	16.0973
6150.000000	101.675	17.9810
6220.000000	101.637	19.9294
6300.000000	101.630	22.2255
6400.000000	101.673	25.2153
6500.000000	101.782	28.3200
6600.000000	101.961	31.4699
6700.000000	102.210	34.6109
6800.000000	102.533	37.7348
6900.000000	102.941	40.8070
7000.000000	103.441	43.7339
7100.000000	104.035	46.4132
7200.000000	104.734	48.7597
7300.000000	105.554	50.6391
7400.000000	106.497	51.8146
7500.000000	107.542	51.9708
7620.000000	108.861	50.2889
7750.000000	110.213	45.3441
7880.000000	111.249	36.4883
8000.000000	111.739	25.3263
8120.000000	111.717	13.0555
8250.000000	111.155	1.1198
8380.000000	110.151	-7.4080
8500.000000	109.002	-11.8606
8620.000000	107.824	-13.5982
8750.000000	106.680	-13.3689
8850.000000	105.954	-12.2404
9000.000000	105.152	-9.7202
9120.000000	104.749	-7.4882
9250.000000	104.504	-5.2347
9380.000000	104.411	-3.3535
9500.000000	104.427	-2.0647
9620.000000	104.515	-1.2766
9750.000000	104.669	-1.0232
9880.000000	104.873	-1.4817
10000.000000	105.085	-2.6858
10150.000000	105.330	-5.4209
10300.000000	105.475	-9.5477
10440.000000	105.450	-14.4179
10600.000000	105.174	-20.5195
10750.000000	104.667	-26.0026
10900.000000	103.946	-30.6757
11060.000000	103.011	-34.4102
11200.000000	102.117	-36.5627
11380.000000	100.937	-37.9336
11500.000000	100.163	-38.0972
11720.000000	98.837	-37.2487
11800.000000	98.396	-36.6834
12060.000000	97.149	-34.4622
12200.000000	96.601	-33.3242
12410.000000	95.920	-32.1413
12500.000000	95.664	-31.9366
12650.000000	95.255	-32.0929
12800.000000	94.827	-32.8707
13150.000000	93.532	-36.1985
13200.000000	93.298	-36.6936
13400.000000	92.228	-38.2785
13600.000000	90.945	-38.8090
13800.000000	89.472	-37.8782
14000.000000	87.878	-35.2484
14300.000000	85.524	-28.2490
14500.000000	84.166	-22.0515
14750.000000	82.827	-13.3986
15000.000000	81.861	-4.3601
15250.000000	81.156	4.8087
15500.000000	80.637	13.9663
15750.000000	80.313	22.6494
16000.000000	80.294	30.1364
16250.000000	80.764	35.5726
16500.000000	81.750	37.6493
16750.000000	82.935	34.6690
17000.000000	83.830	25.3696
17250.000000	84.014	10.8164
17500.000000	83.275	-4.6289
17750.000000	81.648	-15.9232
18000.000000	79.350	-20.6751
18250.000000	76.648	-19.0459
18500.000000	73.798	-12.0845
18750.000000	71.101	-1.7145
19000.000000	68.968	8.8604
19250.000000	67.597	16.9651
19500.000000	66.759	22.0671
19750.000000	66.200	24.8453
