* Measurement data measured by REW V5.20
* Source: Mic in at front panel (Pink) (Realtek(R) Audio), MICROPHONE (Master Volume), L, volume: 0.250
* Format: 256k Log Swept Sine, 1 sweep at -12.0 dBFS with no timing reference
* Dated: Nov 14, 2021 11:57:54 PM
* REW Settings:
*  C-weighting compensation: Off
*  Target level: 75.0 dB
* Note: Tronsmart Onyx Prime
* Measurement: edx L Nov 14
* Smoothing: 1/12 octave
* Frequency Step: 1/48 octave
* Start Frequency: 20.000 Hz
*
* Freq(Hz)	SPL(dB)	Phase(degrees)
20.000000	103.8	162.7888
20.299999	103.7	162.1895
20.600000	103.7	161.6063
20.900000	103.6	161.0384
21.200001	103.5	160.4858
21.400000	103.5	160.1263
21.799999	103.4	159.4294
22.000000	103.4	159.0924
22.400000	103.3	158.4420
22.700001	103.2	157.9744
23.000000	103.2	157.5228
23.299999	103.1	157.0859
23.600000	103.0	156.6628
24.000000	102.9	156.1197
24.299999	102.9	155.7283
24.700001	102.8	155.2278
25.000000	102.7	154.8684
25.400000	102.7	154.4086
25.799999	102.6	153.9687
26.200001	102.5	153.5466
26.500000	102.4	153.2418
26.900000	102.4	152.8516
27.200001	102.3	152.5714
27.600000	102.2	152.2136
28.000000	102.1	151.8712
28.500000	102.1	151.4604
29.000000	102.0	151.0655
29.500000	101.9	150.6864
30.000000	101.8	150.3231
30.400000	101.7	150.0419
30.700001	101.7	149.8351
31.100000	101.6	149.5628
31.500000	101.6	149.2941
32.000000	101.5	148.9649
32.500000	101.5	148.6461
33.000000	101.4	148.3383
33.500000	101.3	148.0375
34.000000	101.3	147.7376
34.500000	101.2	147.4352
35.000000	101.2	147.1309
35.500000	101.1	146.8278
36.000000	101.1	146.5276
36.500000	101.0	146.2292
37.000000	101.0	145.9306
37.500000	100.9	145.6306
38.200001	100.8	145.2086
38.700001	100.8	144.9066
39.500000	100.7	144.4204
40.000000	100.7	144.1113
40.599998	100.6	143.7328
41.200001	100.6	143.3494
41.799999	100.5	142.9686
42.500000	100.5	142.5334
43.099998	100.4	142.1635
43.700001	100.4	141.7862
44.400002	100.3	141.3300
45.000000	100.2	140.9281
45.500000	100.2	140.5887
46.200001	100.1	140.1065
46.799999	100.1	139.6863
47.500000	100.0	139.1977
48.200001	100.0	138.7277
48.700001	99.9	138.4062
49.400002	99.9	137.9660
50.000000	99.8	137.5869
50.799999	99.7	137.0734
51.500000	99.7	136.6178
52.200001	99.6	136.1553
53.000000	99.5	135.6243
53.799999	99.5	135.1097
54.500000	99.4	134.6789
55.200001	99.3	134.2575
56.000000	99.3	133.7767
57.000000	99.2	133.1747
58.000000	99.1	132.5741
59.000000	99.0	131.9787
60.000000	98.8	131.3995
60.799999	98.8	130.9488
61.500000	98.7	130.5641
62.200001	98.6	130.1978
63.000000	98.5	129.8146
64.000000	98.4	129.3839
65.000000	98.3	128.9958
66.000000	98.2	128.6715
67.000000	98.1	128.3976
68.000000	98.0	128.1201
69.000000	97.9	127.8145
70.000000	97.8	127.4644
71.000000	97.8	127.0560
72.000000	97.7	126.6060
73.000000	97.6	126.1226
74.000000	97.5	125.5897
75.000000	97.5	125.0119
76.199997	97.3	124.3115
77.500000	97.2	123.5887
78.800003	97.1	122.9207
80.000000	96.9	122.3617
81.199997	96.8	121.8423
82.500000	96.7	121.3074
83.800003	96.5	120.8029
85.000000	96.4	120.3633
86.199997	96.3	119.9403
87.500000	96.1	119.4954
88.500000	96.0	119.1663
90.000000	95.9	118.7108
91.199997	95.7	118.3775
92.500000	95.6	118.0252
93.800003	95.5	117.6772
95.000000	95.3	117.3704
96.199997	95.2	117.0854
97.500000	95.1	116.7953
98.800003	94.9	116.4989
100.000000	94.8	116.2036
101.500000	94.6	115.8223
103.000000	94.5	115.4703
104.400002	94.3	115.2002
106.000000	94.2	114.9677
107.500000	94.0	114.7913
109.000000	93.8	114.6057
110.599998	93.7	114.3812
112.000000	93.5	114.2083
113.800003	93.4	114.1482
115.000000	93.2	114.2899
117.199997	93.0	115.0000
118.000000	92.9	115.3286
120.599998	92.7	115.6750
122.000000	92.5	115.1848
124.099998	92.3	114.2419
125.000000	92.2	113.9329
126.500000	92.0	113.6110
128.000000	91.8	113.5104
131.500000	91.5	113.7792
132.000000	91.4	113.8470
134.000000	91.2	114.2055
136.000000	90.9	114.7579
138.000000	90.7	115.4854
140.000000	90.4	116.3198
143.000000	90.2	117.6534
145.000000	90.1	118.2401
147.500000	90.3	118.2607
150.000000	90.4	117.6106
152.500000	90.4	116.8680
155.000000	90.2	116.6689
157.500000	90.0	116.8043
160.000000	89.7	116.9394
162.500000	89.5	117.1031
165.000000	89.3	117.3671
167.500000	89.1	117.7109
170.000000	88.9	118.0916
172.500000	88.7	118.4941
175.000000	88.5	118.9069
177.500000	88.3	119.3185
180.000000	88.2	119.7318
182.500000	88.0	120.1516
185.000000	87.9	120.5776
187.500000	87.7	121.0333
190.000000	87.6	121.5562
192.500000	87.4	122.1394
195.000000	87.3	122.7382
197.500000	87.2	123.3187
200.000000	87.1	123.8748
203.000000	86.9	124.5265
206.000000	86.8	125.1904
209.000000	86.7	125.8809
212.000000	86.5	126.5833
214.000000	86.5	127.0485
218.000000	86.3	127.9550
220.000000	86.2	128.3927
224.000000	86.1	129.2434
227.000000	86.0	129.8637
230.000000	85.9	130.4690
233.000000	85.8	131.0652
236.000000	85.7	131.6636
240.000000	85.6	132.4642
243.000000	85.5	133.0543
247.000000	85.4	133.8217
250.000000	85.3	134.3795
254.000000	85.2	135.0932
258.000000	85.1	135.7859
262.000000	85.0	136.4694
265.000000	85.0	136.9759
269.000000	84.9	137.6437
272.000000	84.8	138.1391
276.000000	84.8	138.7889
280.000000	84.7	139.4210
285.000000	84.6	140.1843
290.000000	84.5	140.9236
295.000000	84.4	141.6415
300.000000	84.3	142.3398
304.000000	84.3	142.8870
307.000000	84.2	143.2911
311.000000	84.2	143.8215
315.000000	84.1	144.3417
320.000000	84.0	144.9813
325.000000	83.9	145.6152
330.000000	83.9	146.2437
335.000000	83.8	146.8673
340.000000	83.7	147.4894
345.000000	83.6	148.1115
350.000000	83.5	148.7322
355.000000	83.5	149.3486
360.000000	83.4	149.9591
365.000000	83.3	150.5611
370.000000	83.3	151.1505
375.000000	83.2	151.7243
382.000000	83.1	152.5003
387.000000	83.1	153.0356
395.000000	83.0	153.8671
400.000000	82.9	154.3796
406.000000	82.8	154.9952
412.000000	82.7	155.6149
418.000000	82.7	156.2395
425.000000	82.6	156.9718
431.000000	82.5	157.6013
437.000000	82.4	158.2340
444.000000	82.3	158.9777
450.000000	82.3	159.6197
455.000000	82.2	160.1569
462.000000	82.1	160.9103
468.000000	82.1	161.5582
475.000000	82.0	162.3176
482.000000	81.9	163.0798
487.000000	81.8	163.6257
494.000000	81.8	164.3931
500.000000	81.7	165.0545
508.000000	81.6	165.9424
515.000000	81.5	166.7251
522.000000	81.5	167.5140
530.000000	81.4	168.4227
538.000000	81.3	169.3370
545.000000	81.2	170.1425
552.000000	81.2	170.9532
560.000000	81.1	171.8871
570.000000	81.0	173.0677
580.000000	80.9	174.2618
590.000000	80.8	175.4670
600.000000	80.8	176.6843
608.000000	80.7	177.6678
615.000000	80.7	178.5337
622.000000	80.6	179.4032
630.000000	80.6	-179.5973
640.000000	80.5	-178.3367
650.000000	80.4	-177.0666
660.000000	80.4	-175.7899
670.000000	80.3	-174.5003
680.000000	80.3	-173.1910
690.000000	80.3	-171.8654
700.000000	80.2	-170.5309
710.000000	80.2	-169.1932
720.000000	80.2	-167.8531
730.000000	80.2	-166.5104
740.000000	80.1	-165.1654
750.000000	80.1	-163.8200
762.000000	80.1	-162.2074
775.000000	80.1	-160.4663
788.000000	80.2	-158.7338
800.000000	80.2	-157.1436
812.000000	80.2	-155.5650
825.000000	80.3	-153.8722
838.000000	80.3	-152.1998
850.000000	80.4	-150.6746
862.000000	80.4	-149.1690
875.000000	80.5	-147.5668
885.000000	80.6	-146.3597
900.000000	80.7	-144.5975
912.000000	80.8	-143.2348
925.000000	80.9	-141.8062
938.000000	81.0	-140.4233
950.000000	81.1	-139.1874
962.000000	81.2	-137.9929
975.000000	81.4	-136.7462
988.000000	81.5	-135.5466
1000.000000	81.6	-134.4798
1015.000000	81.8	-133.2004
1030.000000	82.0	-131.9782
1044.000000	82.1	-130.8861
1060.000000	82.3	-129.6965
1075.000000	82.5	-128.6446
1090.000000	82.7	-127.6664
1106.000000	82.9	-126.7142
1120.000000	83.1	-125.9573
1138.000000	83.4	-125.0768
1150.000000	83.5	-124.5390
1172.000000	83.8	-123.6383
1180.000000	83.9	-123.3344
1206.000000	84.2	-122.4195
1220.000000	84.4	-121.9690
1241.000000	84.6	-121.3472
1250.000000	84.8	-121.0995
1265.000000	84.9	-120.7105
1280.000000	85.1	-120.3510
1315.000000	85.5	-119.6215
1320.000000	85.6	-119.5281
1340.000000	85.8	-119.1781
1360.000000	86.1	-118.8689
1380.000000	86.3	-118.6079
1400.000000	86.6	-118.4013
1430.000000	87.0	-118.1976
1450.000000	87.3	-118.1350
1475.000000	87.6	-118.1396
1500.000000	87.9	-118.2296
1525.000000	88.2	-118.3995
1550.000000	88.5	-118.6533
1575.000000	88.7	-118.9976
1600.000000	89.0	-119.4378
1625.000000	89.2	-119.9770
1650.000000	89.5	-120.6168
1675.000000	89.7	-121.3578
1700.000000	89.9	-122.1999
1725.000000	90.2	-123.1423
1750.000000	90.4	-124.1840
1775.000000	90.6	-125.3223
1800.000000	90.7	-126.5521
1825.000000	90.9	-127.8646
1850.000000	91.0	-129.2471
1875.000000	91.2	-130.6811
1900.000000	91.3	-132.1427
1925.000000	91.4	-133.6045
1950.000000	91.5	-135.0373
1975.000000	91.5	-136.4143
2000.000000	91.6	-137.7219
2030.000000	91.7	-139.2121
2060.000000	91.8	-140.6716
2090.000000	91.8	-142.1685
2120.000000	91.9	-143.7261
2140.000000	91.9	-144.7783
2180.000000	91.9	-146.8122
2200.000000	91.9	-147.7541
2240.000000	91.8	-149.4565
2270.000000	91.8	-150.6065
2300.000000	91.7	-151.6933
2330.000000	91.7	-152.7375
2360.000000	91.6	-153.7282
2400.000000	91.5	-154.9159
2430.000000	91.4	-155.6714
2470.000000	91.2	-156.4713
2500.000000	91.1	-156.9148
2540.000000	90.9	-157.3093
2580.000000	90.8	-157.4965
2620.000000	90.7	-157.4980
2650.000000	90.6	-157.3944
2690.000000	90.5	-157.1514
2720.000000	90.5	-156.9210
2760.000000	90.5	-156.5980
2800.000000	90.5	-156.3094
2850.000000	90.5	-156.0852
2900.000000	90.6	-156.1157
2950.000000	90.7	-156.4592
3000.000000	90.7	-157.0856
3040.000000	90.8	-157.7417
3070.000000	90.8	-158.3063
3110.000000	90.8	-159.1510
3150.000000	90.8	-160.1085
3200.000000	90.8	-161.4761
3250.000000	90.7	-163.0135
3300.000000	90.6	-164.6360
3350.000000	90.3	-166.1918
3400.000000	90.1	-167.5060
3450.000000	89.7	-168.4461
3500.000000	89.3	-168.9464
3550.000000	88.9	-168.9725
3600.000000	88.4	-168.4676
3650.000000	87.9	-167.3334
3700.000000	87.5	-165.4576
3750.000000	87.0	-162.7609
3820.000000	86.4	-157.6187
3870.000000	86.1	-153.1282
3950.000000	86.0	-145.1659
4000.000000	86.2	-140.1549
4060.000000	86.6	-134.5637
4120.000000	87.2	-129.7677
4180.000000	87.9	-125.9811
4250.000000	88.8	-122.9465
4310.000000	89.6	-121.5334
4370.000000	90.3	-121.1880
4440.000000	91.2	-122.0732
4500.000000	91.8	-123.8430
4550.000000	92.3	-125.9306
4620.000000	92.8	-129.5793
4680.000000	93.1	-133.1551
4750.000000	93.3	-137.5309
4820.000000	93.3	-141.7787
4870.000000	93.2	-144.5639
4940.000000	93.0	-147.9574
5000.000000	92.8	-150.3283
5080.000000	92.4	-152.7007
5150.000000	92.1	-154.0815
5220.000000	91.7	-154.8740
5300.000000	91.3	-155.1422
5380.000000	90.9	-154.8439
5450.000000	90.6	-154.2153
5520.000000	90.3	-153.3157
5600.000000	90.1	-152.0158
5700.000000	89.7	-150.0437
5800.000000	89.5	-147.7372
5900.000000	89.3	-145.1582
6000.000000	89.2	-142.3896
6080.000000	89.2	-140.1061
6150.000000	89.2	-138.0968
6220.000000	89.2	-136.0921
6300.000000	89.3	-133.8057
6400.000000	89.5	-130.9402
6500.000000	89.7	-128.0543
6600.000000	89.9	-125.1449
6700.000000	90.3	-122.2121
6800.000000	90.7	-119.2856
6900.000000	91.3	-116.4809
7000.000000	91.9	-114.0152
7100.000000	92.7	-112.0860
7200.000000	93.5	-110.7558
7300.000000	94.5	-110.0534
7400.000000	95.5	-110.1585
7500.000000	96.7	-111.4394
7620.000000	98.1	-115.2133
7750.000000	99.5	-123.0114
7880.000000	100.5	-135.0556
8000.000000	100.8	-148.7553
8120.000000	100.5	-162.4639
8250.000000	99.6	-174.5980
8380.000000	98.3	177.3811
8500.000000	96.9	173.3319
8620.000000	95.6	171.6764
8750.000000	94.3	171.7156
8850.000000	93.4	172.6113
9000.000000	92.3	174.8825
9120.000000	91.6	177.2548
9250.000000	91.0	-179.8059
9380.000000	90.5	-176.6080
9500.000000	90.2	-173.5190
9620.000000	90.0	-170.3957
9750.000000	89.9	-167.0790
9880.000000	89.9	-163.9106
10000.000000	90.1	-161.1628
10150.000000	90.3	-158.0256
10300.000000	90.8	-155.3060
10440.000000	91.4	-153.2576
10600.000000	92.2	-151.7261
10750.000000	93.2	-151.4322
10900.000000	94.2	-152.7583
11060.000000	95.4	-156.6630
11200.000000	96.4	-162.7119
11380.000000	97.3	-174.2363
11500.000000	97.5	176.2797
11720.000000	97.3	158.0230
11800.000000	96.9	151.9292
12060.000000	95.3	136.5018
12200.000000	94.2	131.0447
12410.000000	92.4	125.6141
12500.000000	91.7	123.9686
12650.000000	90.6	121.7625
12800.000000	89.6	119.9445
13150.000000	87.5	116.2263
13200.000000	87.3	115.7254
13400.000000	86.1	113.8789
13600.000000	85.0	112.5130
13800.000000	83.7	112.0310
14000.000000	82.5	112.8607
14300.000000	80.8	116.2897
14500.000000	80.0	118.5017
14750.000000	79.5	118.6901
15000.000000	78.8	116.4429
15250.000000	77.7	114.8242
15500.000000	76.6	115.4472
15750.000000	75.6	117.8076
16000.000000	75.0	120.6331
16250.000000	75.0	122.4809
16500.000000	75.5	121.5854
16750.000000	76.3	115.6406
17000.000000	76.9	102.7689
17250.000000	76.8	84.0780
17500.000000	75.8	64.7199
17750.000000	73.8	50.1214
18000.000000	71.2	42.0527
18250.000000	68.2	39.2289
18500.000000	65.1	39.7987
18750.000000	62.0	43.0641
19000.000000	58.9	50.4194
19250.000000	55.9	65.1555
19500.000000	53.1	88.7082
19750.000000	51.1	114.5553
