* Measurement data measured by REW V5.20.13
* Source: EXCL: Mic in at front panel (Pink) (Realtek(R) Audio), MICROPHONE (Master Volume), L, volume: 0.250
* Format: 256k Log Swept Sine, 1 sweep at -12.0 dBFS with no timing reference
* Dated: Oct 21, 2022 12:11:25 AM
* REW Settings:
*  C-weighting compensation: Off
*  Target level: 75.0 dB
* Note: VE Azure L
* Measurement: KZ EDX Ultra Oct 21
* Smoothing: 1/12 octave
* Frequency Step: 1/48 octave
* Start Frequency: 20.000 Hz
*
* Freq(Hz)	SPL(dB)	Phase(degrees)
20.000000	94.248	15.5306
20.299999	94.257	15.1873
20.600000	94.266	14.8726
20.900000	94.278	14.5746
21.200001	94.292	14.2800
21.400000	94.302	14.0804
21.799999	94.322	13.6683
22.000000	94.332	13.4543
22.400000	94.350	13.0110
22.700001	94.361	12.6679
23.000000	94.370	12.3205
23.299999	94.376	11.9743
23.600000	94.381	11.6335
24.000000	94.386	11.1918
24.299999	94.390	10.8695
24.700001	94.394	10.4490
25.000000	94.397	10.1403
25.400000	94.401	9.7422
25.799999	94.404	9.3677
26.200001	94.411	9.0181
26.500000	94.418	8.7639
26.900000	94.431	8.4191
27.200001	94.441	8.1461
27.600000	94.453	7.7624
28.000000	94.458	7.3766
28.500000	94.455	6.9399
29.000000	94.450	6.5880
29.500000	94.452	6.2994
30.000000	94.461	6.0129
30.400000	94.472	5.7539
30.700001	94.479	5.5397
31.100000	94.483	5.2404
31.500000	94.483	4.9451
32.000000	94.480	4.6061
32.500000	94.477	4.3004
33.000000	94.479	3.9965
33.500000	94.483	3.6626
34.000000	94.484	3.2984
34.500000	94.478	2.9427
35.000000	94.469	2.6353
35.500000	94.465	2.3772
36.000000	94.471	2.1237
36.500000	94.483	1.8270
37.000000	94.493	1.4766
37.500000	94.497	1.1016
38.200001	94.491	0.5972
38.700001	94.483	0.2658
39.500000	94.463	-0.2087
40.000000	94.449	-0.4528
40.599998	94.437	-0.6927
41.200001	94.434	-0.9290
41.799999	94.436	-1.2227
42.500000	94.430	-1.6342
43.099998	94.414	-1.9728
43.700001	94.396	-2.2532
44.400002	94.384	-2.5432
45.000000	94.380	-2.8188
45.500000	94.378	-3.0798
46.200001	94.370	-3.4587
46.799999	94.361	-3.7624
47.500000	94.352	-4.0880
48.200001	94.347	-4.4037
48.700001	94.345	-4.6298
49.400002	94.339	-4.9442
50.000000	94.332	-5.2065
50.799999	94.317	-5.5308
51.500000	94.300	-5.7762
52.200001	94.284	-5.9952
53.000000	94.268	-6.2509
53.799999	94.249	-6.5312
54.500000	94.229	-6.7799
55.200001	94.208	-7.0175
56.000000	94.187	-7.2806
57.000000	94.167	-7.6195
58.000000	94.151	-7.9838
59.000000	94.132	-8.3615
60.000000	94.108	-8.7059
60.799999	94.086	-8.9419
61.500000	94.066	-9.1290
62.200001	94.047	-9.3066
63.000000	94.026	-9.5101
64.000000	94.002	-9.8008
65.000000	93.978	-10.1750
66.000000	93.946	-10.6608
67.000000	93.891	-11.2535
68.000000	93.784	-11.7716
69.000000	93.637	-11.7606
70.000000	93.541	-11.0662
71.000000	93.567	-10.2646
72.000000	93.670	-9.9402
73.000000	93.776	-10.0935
74.000000	93.862	-10.5062
75.000000	93.925	-11.0510
76.199997	93.971	-11.7700
77.500000	93.989	-12.5403
78.800003	93.978	-13.2672
80.000000	93.950	-13.8631
81.199997	93.916	-14.4050
82.500000	93.876	-14.9927
83.800003	93.830	-15.5741
85.000000	93.779	-16.0411
86.199997	93.726	-16.3842
87.500000	93.677	-16.6212
88.500000	93.648	-16.7794
90.000000	93.606	-17.0842
91.199997	93.566	-17.3788
92.500000	93.516	-17.7167
93.800003	93.466	-18.0548
95.000000	93.424	-18.3608
96.199997	93.386	-18.6573
97.500000	93.347	-18.9548
98.800003	93.307	-19.2173
100.000000	93.269	-19.4323
101.500000	93.222	-19.6847
103.000000	93.177	-19.9444
104.400002	93.137	-20.1946
106.000000	93.097	-20.4727
107.500000	93.065	-20.7281
109.000000	93.031	-20.9938
110.599998	92.986	-21.2934
112.000000	92.940	-21.5742
113.800003	92.881	-21.9717
115.000000	92.847	-22.2407
117.199997	92.806	-22.6453
118.000000	92.796	-22.7494
120.599998	92.737	-22.8651
122.000000	92.683	-22.7667
124.099998	92.601	-22.6551
125.000000	92.572	-22.6946
126.500000	92.537	-22.8842
128.000000	92.529	-23.1743
131.500000	92.561	-23.9150
132.000000	92.559	-24.0161
134.000000	92.508	-24.3580
136.000000	92.406	-24.5559
138.000000	92.307	-24.7249
140.000000	92.231	-24.9661
143.000000	92.133	-25.3682
145.000000	92.061	-25.5909
147.500000	91.968	-25.8264
150.000000	91.883	-25.9876
152.500000	91.802	-26.0110
155.000000	91.726	-25.9816
157.500000	91.658	-26.1082
160.000000	91.595	-26.4000
162.500000	91.533	-26.7221
165.000000	91.468	-27.0087
167.500000	91.398	-27.2355
170.000000	91.325	-27.3804
172.500000	91.250	-27.4410
175.000000	91.178	-27.4572
177.500000	91.115	-27.4753
180.000000	91.065	-27.5212
182.500000	91.018	-27.5850
185.000000	90.968	-27.6472
187.500000	90.918	-27.6871
190.000000	90.864	-27.6703
192.500000	90.806	-27.6074
195.000000	90.750	-27.6202
197.500000	90.703	-27.8315
200.000000	90.660	-28.1738
203.000000	90.610	-28.5419
206.000000	90.561	-28.7997
209.000000	90.515	-29.0039
212.000000	90.457	-29.1856
214.000000	90.404	-29.2870
218.000000	90.273	-29.4078
220.000000	90.210	-29.4328
224.000000	90.101	-29.4521
227.000000	90.029	-29.4685
230.000000	89.959	-29.4974
233.000000	89.893	-29.5394
236.000000	89.828	-29.5931
240.000000	89.741	-29.6699
243.000000	89.673	-29.7191
247.000000	89.577	-29.7515
250.000000	89.505	-29.7347
254.000000	89.412	-29.6506
258.000000	89.332	-29.5394
262.000000	89.259	-29.4731
265.000000	89.204	-29.4573
269.000000	89.126	-29.4377
272.000000	89.065	-29.4003
276.000000	88.986	-29.3139
280.000000	88.913	-29.1984
285.000000	88.832	-29.0554
290.000000	88.760	-28.9879
295.000000	88.681	-29.0099
300.000000	88.589	-29.0355
304.000000	88.511	-29.0178
307.000000	88.453	-28.9852
311.000000	88.377	-28.9277
315.000000	88.301	-28.8601
320.000000	88.203	-28.7469
325.000000	88.107	-28.5864
330.000000	88.016	-28.3961
335.000000	87.931	-28.2052
340.000000	87.849	-28.0304
345.000000	87.767	-27.8643
350.000000	87.685	-27.6869
355.000000	87.603	-27.4924
360.000000	87.523	-27.2864
365.000000	87.444	-27.0717
370.000000	87.366	-26.8485
375.000000	87.289	-26.6178
382.000000	87.185	-26.2838
387.000000	87.112	-26.0371
395.000000	86.999	-25.6262
400.000000	86.930	-25.3618
406.000000	86.851	-25.0462
412.000000	86.772	-24.7356
418.000000	86.692	-24.4130
425.000000	86.600	-23.9974
431.000000	86.527	-23.6154
437.000000	86.461	-23.2352
444.000000	86.390	-22.8130
450.000000	86.333	-22.4854
455.000000	86.287	-22.2522
462.000000	86.215	-21.9719
468.000000	86.145	-21.7201
475.000000	86.060	-21.3729
482.000000	85.977	-20.9907
487.000000	85.918	-20.7118
494.000000	85.835	-20.2969
500.000000	85.766	-19.9039
508.000000	85.681	-19.3601
515.000000	85.611	-18.8992
522.000000	85.540	-18.4441
530.000000	85.459	-17.8995
538.000000	85.381	-17.3252
545.000000	85.318	-16.8138
552.000000	85.257	-16.2990
560.000000	85.192	-15.7170
570.000000	85.113	-15.0077
580.000000	85.033	-14.2925
590.000000	84.953	-13.5560
600.000000	84.877	-12.7881
608.000000	84.821	-12.1620
615.000000	84.774	-11.6149
622.000000	84.726	-11.0583
630.000000	84.674	-10.3922
640.000000	84.617	-9.5237
650.000000	84.571	-8.6454
660.000000	84.538	-7.7830
670.000000	84.514	-6.9952
680.000000	84.489	-6.2906
690.000000	84.455	-5.6107
700.000000	84.417	-4.9084
710.000000	84.381	-4.1758
720.000000	84.348	-3.4344
730.000000	84.317	-2.6951
740.000000	84.285	-1.9500
750.000000	84.253	-1.1887
762.000000	84.217	-0.2422
775.000000	84.183	0.8287
788.000000	84.158	1.9402
800.000000	84.146	3.0001
812.000000	84.149	4.0743
825.000000	84.171	5.1819
838.000000	84.201	6.1671
850.000000	84.224	6.9958
862.000000	84.243	7.8026
875.000000	84.261	8.6807
885.000000	84.276	9.3605
900.000000	84.301	10.3754
912.000000	84.323	11.1908
925.000000	84.352	12.0778
938.000000	84.387	12.9484
950.000000	84.420	13.7234
962.000000	84.454	14.4761
975.000000	84.491	15.2816
988.000000	84.528	16.0876
1000.000000	84.561	16.8427
1015.000000	84.607	17.8241
1030.000000	84.664	18.8352
1044.000000	84.731	19.7505
1060.000000	84.815	20.7108
1075.000000	84.892	21.5575
1090.000000	84.968	22.4040
1106.000000	85.054	23.3341
1120.000000	85.138	24.1875
1138.000000	85.279	25.3264
1150.000000	85.404	26.0267
1172.000000	85.679	26.7825
1180.000000	85.775	26.8297
1206.000000	85.998	26.4372
1220.000000	86.058	26.1083
1241.000000	86.078	25.7222
1250.000000	86.067	25.6438
1265.000000	86.029	25.6720
1280.000000	85.979	25.9200
1315.000000	85.877	27.2762
1320.000000	85.869	27.5315
1340.000000	85.855	28.6172
1360.000000	85.867	29.7384
1380.000000	85.894	30.8549
1400.000000	85.934	31.9727
1430.000000	86.016	33.6113
1450.000000	86.076	34.6343
1475.000000	86.141	35.8998
1500.000000	86.193	37.2685
1525.000000	86.243	38.8593
1550.000000	86.312	40.7688
1575.000000	86.439	42.9887
1600.000000	86.656	45.3107
1625.000000	86.963	47.4264
1650.000000	87.332	49.0595
1675.000000	87.713	50.0715
1700.000000	88.060	50.5443
1725.000000	88.348	50.7174
1750.000000	88.583	50.8667
1775.000000	88.789	51.1905
1800.000000	89.002	51.7172
1825.000000	89.239	52.3112
1850.000000	89.500	52.8239
1875.000000	89.769	53.1741
1900.000000	90.033	53.3504
1925.000000	90.280	53.4131
1950.000000	90.513	53.4483
1975.000000	90.739	53.4954
2000.000000	90.962	53.5512
2030.000000	91.232	53.6302
2060.000000	91.509	53.7194
2090.000000	91.799	53.7798
2120.000000	92.100	53.7638
2140.000000	92.306	53.7042
2180.000000	92.735	53.4458
2200.000000	92.957	53.2045
2240.000000	93.397	52.4153
2270.000000	93.710	51.5905
2300.000000	94.005	50.6438
2330.000000	94.287	49.6260
2360.000000	94.563	48.5266
2400.000000	94.916	46.8642
2430.000000	95.163	45.4616
2470.000000	95.459	43.4267
2500.000000	95.654	41.8146
2540.000000	95.880	39.6273
2580.000000	96.079	37.4402
2620.000000	96.258	35.1931
2650.000000	96.371	33.4412
2690.000000	96.489	31.0593
2720.000000	96.554	29.2864
2760.000000	96.615	26.9550
2800.000000	96.649	24.6320
2850.000000	96.647	21.7404
2900.000000	96.588	18.9313
2950.000000	96.473	16.3339
3000.000000	96.319	13.9999
3040.000000	96.172	12.3038
3070.000000	96.048	11.1451
3110.000000	95.869	9.7822
3150.000000	95.681	8.6185
3200.000000	95.443	7.3664
3250.000000	95.195	6.2778
3300.000000	94.922	5.3961
3350.000000	94.622	4.8672
3400.000000	94.316	4.7817
3450.000000	94.024	5.1226
3500.000000	93.764	5.8281
3550.000000	93.552	6.7835
3600.000000	93.387	7.8488
3650.000000	93.258	8.9401
3700.000000	93.153	10.0591
3750.000000	93.069	11.2487
3820.000000	92.991	13.0326
3870.000000	92.963	14.3855
3950.000000	92.978	16.7148
4000.000000	93.035	18.2160
4060.000000	93.149	19.9602
4120.000000	93.303	21.6057
4180.000000	93.493	23.1527
4250.000000	93.751	24.8391
4310.000000	94.007	26.2321
4370.000000	94.305	27.5811
4440.000000	94.716	29.0066
4500.000000	95.118	30.0279
4550.000000	95.488	30.7122
4620.000000	96.055	31.3762
4680.000000	96.591	31.6570
4750.000000	97.287	31.6046
4820.000000	98.068	30.9661
4870.000000	98.670	29.9958
4940.000000	99.553	27.6812
5000.000000	100.310	24.5925
5080.000000	101.239	18.6088
5150.000000	101.892	11.5513
5220.000000	102.317	2.9945
5300.000000	102.442	-7.8686
5380.000000	102.157	-18.6171
5450.000000	101.601	-26.9106
5520.000000	100.823	-33.5749
5600.000000	99.767	-39.0155
5700.000000	98.368	-42.9671
5800.000000	97.027	-44.5844
5900.000000	95.817	-44.6175
6000.000000	94.757	-43.5270
6080.000000	94.022	-42.0834
6150.000000	93.459	-40.5382
6220.000000	92.967	-38.8151
6300.000000	92.481	-36.6818
6400.000000	91.976	-33.8041
6500.000000	91.582	-30.7511
6600.000000	91.300	-27.6210
6700.000000	91.122	-24.4891
6800.000000	91.047	-21.3816
6900.000000	91.084	-18.3488
7000.000000	91.242	-15.5005
7100.000000	91.525	-12.9592
7200.000000	91.942	-10.8364
7300.000000	92.505	-9.3071
7400.000000	93.217	-8.6768
7500.000000	94.051	-9.3680
7620.000000	95.126	-12.6566
7750.000000	96.179	-20.2280
7880.000000	96.819	-32.3240
8000.000000	96.810	-46.0820
8120.000000	96.146	-59.5199
8250.000000	94.784	-70.8582
8380.000000	92.978	-77.7006
8500.000000	91.133	-80.4266
8620.000000	89.291	-80.6154
8750.000000	87.424	-78.9263
8850.000000	86.115	-76.7295
9000.000000	84.368	-72.4570
9120.000000	83.147	-68.4883
9250.000000	81.976	-63.8320
9380.000000	80.938	-58.8976
9500.000000	80.084	-54.1733
9620.000000	79.314	-49.3444
9750.000000	78.563	-44.0111
9880.000000	77.890	-38.5850
10000.000000	77.331	-33.5196
10150.000000	76.710	-27.1155
10300.000000	76.170	-20.6379
10440.000000	75.738	-14.5664
10600.000000	75.322	-7.6034
10750.000000	75.007	-1.0557
10900.000000	74.762	5.4823
11060.000000	74.577	12.4385
11200.000000	74.480	18.4877
11380.000000	74.440	26.1858
11500.000000	74.466	31.2707
11720.000000	74.628	40.4671
11800.000000	74.726	43.7639
12060.000000	75.197	54.2383
12200.000000	75.550	59.6734
12410.000000	76.209	67.5053
12500.000000	76.542	70.7343
12650.000000	77.174	75.9452
12800.000000	77.921	80.9398
13150.000000	80.293	91.5149
13200.000000	80.722	92.8418
13400.000000	82.674	97.2935
13600.000000	84.907	99.4836
13800.000000	87.162	97.7609
14000.000000	89.102	90.4439
14300.000000	90.771	69.1375
14500.000000	90.882	52.5449
14750.000000	90.193	35.7440
15000.000000	89.313	24.2036
15250.000000	88.862	13.2556
15500.000000	88.662	-2.1746
15750.000000	87.973	-22.1267
16000.000000	86.287	-40.4423
16250.000000	83.615	-51.1650
16500.000000	80.264	-53.6028
16750.000000	76.595	-50.2366
17000.000000	72.920	-43.5283
17250.000000	69.457	-34.9166
17500.000000	66.310	-25.0492
17750.000000	63.481	-14.1676
18000.000000	60.917	-2.2404
18250.000000	58.530	11.1077
18500.000000	56.223	26.7194
18750.000000	53.953	46.1737
19000.000000	51.951	71.4198
19250.000000	51.227	102.8900
19500.000000	52.805	137.2834
19750.000000	55.656	168.0829
20000.000000	58.486	-170.2439
