* Measurement data measured by REW V5.20
* Source: Mic in at front panel (Pink) (Realtek(R) Audio), MICROPHONE (Master Volume), L, volume: 0.250
* Format: 256k Log Swept Sine, 1 sweep at -12.0 dBFS with no timing reference
* Dated: Oct 17, 2021 9:21:44 PM
* REW Settings:
*  C-weighting compensation: Off
*  Target level: 75.0 dB
* Note: Whizzer HE01
* Measurement: edx L Oct 17
* Smoothing: 1/12 octave
* Frequency Step: 1/48 octave
* Start Frequency: 20.000 Hz
*
* Freq(Hz)	SPL(dB)	Phase(degrees)
20.000000	101.9	51.7667
20.299999	102.0	51.0575
20.600000	102.1	50.3621
20.900000	102.1	49.6780
21.200001	102.1	49.0037
21.400000	102.2	48.5593
21.799999	102.2	47.6842
22.000000	102.3	47.2545
22.400000	102.3	46.4130
22.700001	102.4	45.7986
23.000000	102.4	45.1981
23.299999	102.5	44.6093
23.600000	102.5	44.0298
24.000000	102.5	43.2684
24.299999	102.6	42.7049
24.700001	102.6	41.9643
25.000000	102.6	41.4184
25.400000	102.7	40.7031
25.799999	102.7	39.9991
26.200001	102.8	39.3020
26.500000	102.8	38.7832
26.900000	102.8	38.1009
27.200001	102.8	37.6021
27.600000	102.9	36.9614
28.000000	102.9	36.3512
28.500000	102.9	35.6202
29.000000	103.0	34.9009
29.500000	103.0	34.1783
30.000000	103.0	33.4551
30.400000	103.0	32.8846
30.700001	103.1	32.4643
31.100000	103.1	31.9142
31.500000	103.1	31.3744
32.000000	103.1	30.7117
32.500000	103.2	30.0627
33.000000	103.2	29.4280
33.500000	103.2	28.8054
34.000000	103.2	28.1908
34.500000	103.2	27.5825
35.000000	103.3	26.9819
35.500000	103.3	26.3920
36.000000	103.3	25.8143
36.500000	103.3	25.2491
37.000000	103.3	24.6967
37.500000	103.3	24.1572
38.200001	103.4	23.4229
38.700001	103.4	22.9117
39.500000	103.4	22.1163
40.000000	103.4	21.6334
40.599998	103.4	21.0685
41.200001	103.4	20.5175
41.799999	103.4	19.9767
42.500000	103.4	19.3549
43.099998	103.4	18.8284
43.700001	103.4	18.3085
44.400002	103.4	17.7123
45.000000	103.5	17.2109
45.500000	103.5	16.7999
46.200001	103.5	16.2355
46.799999	103.5	15.7631
47.500000	103.5	15.2253
48.200001	103.5	14.6995
48.700001	103.5	14.3298
49.400002	103.5	13.8214
50.000000	103.5	13.3953
50.799999	103.5	12.8395
51.500000	103.5	12.3617
52.200001	103.5	11.8922
53.000000	103.5	11.3706
53.799999	103.5	10.8683
54.500000	103.5	10.4431
55.200001	103.5	10.0270
56.000000	103.5	9.5552
57.000000	103.5	8.9589
58.000000	103.5	8.3529
59.000000	103.5	7.7402
60.000000	103.5	7.1260
60.799999	103.4	6.6472
61.500000	103.4	6.2444
62.200001	103.4	5.8553
63.000000	103.4	5.4227
64.000000	103.4	4.8955
65.000000	103.4	4.3871
66.000000	103.4	3.9050
67.000000	103.3	3.4398
68.000000	103.3	2.9837
69.000000	103.3	2.5374
70.000000	103.3	2.0804
71.000000	103.3	1.5984
72.000000	103.3	1.1146
73.000000	103.2	0.6587
74.000000	103.2	0.2335
75.000000	103.2	-0.1775
76.199997	103.2	-0.6669
77.500000	103.2	-1.1903
78.800003	103.2	-1.7095
80.000000	103.1	-2.1984
81.199997	103.1	-2.7104
82.500000	103.1	-3.2953
83.800003	103.1	-3.8877
85.000000	103.0	-4.4100
86.199997	103.0	-4.8936
87.500000	103.0	-5.3734
88.500000	102.9	-5.7162
90.000000	102.9	-6.1996
91.199997	102.9	-6.5669
92.500000	102.8	-6.9522
93.800003	102.8	-7.3325
95.000000	102.8	-7.6826
96.199997	102.7	-8.0304
97.500000	102.7	-8.4003
98.800003	102.6	-8.7571
100.000000	102.6	-9.0701
101.500000	102.6	-9.4399
103.000000	102.5	-9.7968
104.400002	102.5	-10.1284
106.000000	102.5	-10.5146
107.500000	102.4	-10.8867
109.000000	102.4	-11.2644
110.599998	102.4	-11.6764
112.000000	102.3	-12.0542
113.800003	102.3	-12.5663
115.000000	102.2	-12.9115
117.199997	102.2	-13.5066
118.000000	102.1	-13.7020
120.599998	102.1	-14.1880
122.000000	102.0	-14.3264
124.099998	101.9	-14.4828
125.000000	101.9	-14.5674
126.500000	101.8	-14.7458
128.000000	101.8	-14.9584
131.500000	101.7	-15.4733
132.000000	101.7	-15.5411
134.000000	101.6	-15.7910
136.000000	101.5	-15.9935
138.000000	101.5	-16.1327
140.000000	101.4	-16.2070
143.000000	101.3	-16.2405
145.000000	101.3	-16.2853
147.500000	101.3	-16.4525
150.000000	101.3	-16.7524
152.500000	101.2	-17.1167
155.000000	101.2	-17.4706
157.500000	101.1	-17.7854
160.000000	101.1	-18.0876
162.500000	101.0	-18.4091
165.000000	101.0	-18.7451
167.500000	100.9	-19.0621
170.000000	100.8	-19.3300
172.500000	100.7	-19.5458
175.000000	100.7	-19.7312
177.500000	100.6	-19.9092
180.000000	100.6	-20.0917
182.500000	100.5	-20.2794
185.000000	100.4	-20.4659
187.500000	100.4	-20.6464
190.000000	100.3	-20.8168
192.500000	100.2	-20.9733
195.000000	100.2	-21.1157
197.500000	100.1	-21.2448
200.000000	100.1	-21.3559
203.000000	100.0	-21.4611
206.000000	99.9	-21.5544
209.000000	99.9	-21.6620
212.000000	99.8	-21.7822
214.000000	99.8	-21.8558
218.000000	99.6	-21.9469
220.000000	99.6	-21.9616
224.000000	99.5	-21.9689
227.000000	99.4	-21.9836
230.000000	99.4	-22.0104
233.000000	99.3	-22.0437
236.000000	99.3	-22.0806
240.000000	99.2	-22.1318
243.000000	99.1	-22.1630
247.000000	99.0	-22.1738
250.000000	98.9	-22.1431
254.000000	98.9	-22.0421
258.000000	98.8	-21.9150
262.000000	98.7	-21.8336
265.000000	98.7	-21.8057
269.000000	98.6	-21.7660
272.000000	98.5	-21.7101
276.000000	98.5	-21.5966
280.000000	98.4	-21.4560
285.000000	98.3	-21.2847
290.000000	98.3	-21.1870
295.000000	98.2	-21.1740
300.000000	98.1	-21.1578
304.000000	98.0	-21.1044
307.000000	98.0	-21.0447
311.000000	97.9	-20.9521
315.000000	97.9	-20.8514
320.000000	97.8	-20.7015
325.000000	97.7	-20.5083
330.000000	97.6	-20.2849
335.000000	97.5	-20.0583
340.000000	97.5	-19.8458
345.000000	97.4	-19.6425
350.000000	97.3	-19.4306
355.000000	97.2	-19.2028
360.000000	97.2	-18.9615
365.000000	97.1	-18.7086
370.000000	97.0	-18.4453
375.000000	97.0	-18.1744
382.000000	96.9	-17.7858
387.000000	96.8	-17.5018
395.000000	96.7	-17.0355
400.000000	96.6	-16.7383
406.000000	96.6	-16.3821
412.000000	96.5	-16.0284
418.000000	96.4	-15.6604
425.000000	96.3	-15.1921
431.000000	96.3	-14.7687
437.000000	96.2	-14.3505
444.000000	96.2	-13.8837
450.000000	96.1	-13.5168
455.000000	96.1	-13.2512
462.000000	96.0	-12.9265
468.000000	96.0	-12.6383
475.000000	95.9	-12.2509
482.000000	95.8	-11.8290
487.000000	95.8	-11.5219
494.000000	95.7	-11.0696
500.000000	95.7	-10.6477
508.000000	95.6	-10.0677
515.000000	95.5	-9.5741
522.000000	95.5	-9.0844
530.000000	95.4	-8.4996
538.000000	95.4	-7.8864
545.000000	95.3	-7.3434
552.000000	95.3	-6.7997
560.000000	95.2	-6.1874
570.000000	95.2	-5.4426
580.000000	95.1	-4.6939
590.000000	95.0	-3.9237
600.000000	95.0	-3.1206
608.000000	94.9	-2.4664
615.000000	94.9	-1.8960
622.000000	94.9	-1.3175
630.000000	94.8	-0.6277
640.000000	94.8	0.2686
650.000000	94.8	1.1731
660.000000	94.8	2.0582
670.000000	94.8	2.8654
680.000000	94.8	3.5905
690.000000	94.8	4.2928
700.000000	94.7	5.0180
710.000000	94.7	5.7752
720.000000	94.7	6.5452
730.000000	94.7	7.3190
740.000000	94.7	8.1031
750.000000	94.7	8.9044
762.000000	94.6	9.8948
775.000000	94.6	11.0073
788.000000	94.6	12.1647
800.000000	94.6	13.2853
812.000000	94.7	14.4448
825.000000	94.7	15.6658
838.000000	94.8	16.7692
850.000000	94.8	17.6998
862.000000	94.9	18.6006
875.000000	94.9	19.5754
885.000000	95.0	20.3254
900.000000	95.0	21.4286
912.000000	95.1	22.2917
925.000000	95.2	23.2034
938.000000	95.3	24.0712
950.000000	95.3	24.8205
962.000000	95.4	25.5251
975.000000	95.5	26.2521
988.000000	95.6	26.9519
1000.000000	95.7	27.5859
1015.000000	95.8	28.3894
1030.000000	95.9	29.2024
1044.000000	96.0	29.9254
1060.000000	96.1	30.6653
1075.000000	96.2	31.3075
1090.000000	96.3	31.9493
1106.000000	96.4	32.6474
1120.000000	96.5	33.2652
1138.000000	96.6	34.0587
1150.000000	96.7	34.5766
1172.000000	96.9	35.4754
1180.000000	97.0	35.7805
1206.000000	97.3	36.6153
1220.000000	97.4	36.9148
1241.000000	97.6	37.1927
1250.000000	97.7	37.2760
1265.000000	97.8	37.3952
1280.000000	98.0	37.5056
1315.000000	98.2	37.7683
1320.000000	98.3	37.8044
1340.000000	98.4	37.9413
1360.000000	98.5	38.0836
1380.000000	98.7	38.2626
1400.000000	98.8	38.4992
1430.000000	99.1	38.8652
1450.000000	99.3	39.0236
1475.000000	99.5	39.1400
1500.000000	99.6	39.2255
1525.000000	99.8	39.3238
1550.000000	99.9	39.4662
1575.000000	100.1	39.6406
1600.000000	100.2	39.7529
1625.000000	100.4	39.7469
1650.000000	100.5	39.6643
1675.000000	100.6	39.5529
1700.000000	100.8	39.4248
1725.000000	100.9	39.2751
1750.000000	101.0	39.1262
1775.000000	101.1	39.0204
1800.000000	101.2	38.9536
1825.000000	101.3	38.8576
1850.000000	101.4	38.6936
1875.000000	101.5	38.4813
1900.000000	101.6	38.2612
1925.000000	101.7	38.0717
1950.000000	101.9	37.9206
1975.000000	102.0	37.7576
2000.000000	102.2	37.5146
2030.000000	102.4	37.0909
2060.000000	102.6	36.5629
2090.000000	102.8	35.9875
2120.000000	102.9	35.4141
2140.000000	103.0	35.0579
2180.000000	103.2	34.4120
2200.000000	103.3	34.0720
2240.000000	103.5	33.2334
2270.000000	103.7	32.4911
2300.000000	103.8	31.7693
2330.000000	103.8	31.1776
2360.000000	103.9	30.7330
2400.000000	104.1	30.2441
2430.000000	104.2	29.8539
2470.000000	104.4	29.2062
2500.000000	104.6	28.5985
2540.000000	104.8	27.6499
2580.000000	105.0	26.5403
2620.000000	105.2	25.1782
2650.000000	105.3	23.9805
2690.000000	105.5	22.2578
2720.000000	105.5	20.9695
2760.000000	105.6	19.3245
2800.000000	105.7	17.7550
2850.000000	105.7	15.8669
2900.000000	105.8	14.0361
2950.000000	105.8	12.3017
3000.000000	105.8	10.6733
3040.000000	105.8	9.4213
3070.000000	105.8	8.5228
3110.000000	105.8	7.4066
3150.000000	105.8	6.3714
3200.000000	105.8	5.1090
3250.000000	105.8	3.7972
3300.000000	105.8	2.4073
3350.000000	105.8	0.9691
3400.000000	105.9	-0.5294
3450.000000	105.9	-2.1206
3500.000000	105.9	-3.7829
3550.000000	105.9	-5.5126
3600.000000	106.0	-7.3616
3650.000000	106.0	-9.3746
3700.000000	105.9	-11.5369
3750.000000	105.9	-13.7898
3820.000000	105.7	-17.0281
3870.000000	105.6	-19.3374
3950.000000	105.3	-22.8412
4000.000000	105.0	-24.8832
4060.000000	104.7	-27.1973
4120.000000	104.4	-29.3319
4180.000000	104.0	-31.2432
4250.000000	103.5	-33.1558
4310.000000	103.0	-34.4598
4370.000000	102.5	-35.4373
4440.000000	102.0	-36.2363
4500.000000	101.5	-36.6753
4550.000000	101.1	-36.8696
4620.000000	100.5	-36.8743
4680.000000	100.0	-36.5967
4750.000000	99.5	-35.9105
4820.000000	99.0	-34.8947
4870.000000	98.6	-34.0254
4940.000000	98.1	-32.6591
5000.000000	97.8	-31.3754
5080.000000	97.3	-29.4859
5150.000000	96.9	-27.6224
5220.000000	96.5	-25.5780
5300.000000	96.1	-23.0869
5380.000000	95.8	-20.4885
5450.000000	95.5	-18.1494
5520.000000	95.2	-15.7447
5600.000000	95.0	-12.9538
5700.000000	94.7	-9.5073
5800.000000	94.5	-6.0972
5900.000000	94.3	-2.6129
6000.000000	94.2	1.0312
6080.000000	94.1	4.0388
6150.000000	94.0	6.6925
6220.000000	94.0	9.3326
6300.000000	94.1	12.3267
6400.000000	94.2	16.0579
6500.000000	94.3	19.7668
6600.000000	94.5	23.3915
6700.000000	94.8	26.8811
6800.000000	95.2	30.2285
6900.000000	95.6	33.3974
7000.000000	96.2	36.2885
7100.000000	96.8	38.7831
7200.000000	97.5	40.7654
7300.000000	98.4	42.0564
7400.000000	99.3	42.3685
7500.000000	100.3	41.3500
7620.000000	101.5	37.8870
7750.000000	102.5	30.8910
7880.000000	103.2	20.6561
8000.000000	103.3	9.5930
8120.000000	103.0	-1.0845
8250.000000	102.1	-10.3783
8380.000000	100.9	-16.4781
8500.000000	99.7	-19.3906
8620.000000	98.5	-20.2250
8750.000000	97.3	-19.4521
8850.000000	96.5	-18.0022
9000.000000	95.4	-14.8302
9120.000000	94.7	-11.7031
9250.000000	94.1	-7.9305
9380.000000	93.6	-3.8862
9500.000000	93.3	-0.0342
9620.000000	93.1	3.8271
9750.000000	93.1	7.9586
9880.000000	93.2	11.9783
10000.000000	93.3	15.5190
10150.000000	93.8	19.6204
10300.000000	94.4	23.1812
10440.000000	95.2	25.7046
10600.000000	96.3	27.0891
10750.000000	97.5	26.1540
10900.000000	98.7	22.1290
11060.000000	99.7	13.7469
11200.000000	100.1	3.2597
11380.000000	100.0	-12.1484
11500.000000	99.5	-21.6569
11720.000000	97.8	-34.1102
11800.000000	97.0	-36.8125
12060.000000	94.2	-40.1900
12200.000000	92.8	-39.6561
12410.000000	90.9	-37.1498
12500.000000	90.2	-35.6758
12650.000000	89.0	-32.8469
12800.000000	88.0	-29.6052
13150.000000	85.8	-20.2352
13200.000000	85.6	-18.6488
13400.000000	84.5	-11.5962
13600.000000	83.6	-3.3671
13800.000000	83.0	5.9517
14000.000000	82.7	16.0266
14300.000000	83.2	31.1464
14500.000000	84.1	40.0018
14750.000000	85.8	48.2514
15000.000000	87.8	52.3042
15250.000000	89.8	51.4525
15500.000000	91.7	45.1777
15750.000000	93.2	33.1801
16000.000000	94.0	16.0583
16250.000000	94.0	-3.9277
16500.000000	93.2	-23.2259
16750.000000	91.7	-38.9045
17000.000000	89.6	-49.9794
17250.000000	87.3	-56.8646
17500.000000	84.8	-60.3342
17750.000000	82.2	-61.0144
18000.000000	79.7	-59.2433
18250.000000	77.1	-54.9492
18500.000000	74.7	-47.5555
18750.000000	72.4	-36.5674
19000.000000	70.6	-23.5445
19250.000000	69.7	-12.8324
19500.000000	69.2	-7.0488
19750.000000	68.9	-4.6140
